%OpenBCI Raw EXG Data
%Number of channels = 8
%Sample Rate = 250 Hz
%Board = OpenBCI_GUI$BoardCytonSerial
Sample Index, EXG Channel 0, EXG Channel 1, EXG Channel 2, EXG Channel 3, EXG Channel 4, EXG Channel 5, EXG Channel 6, EXG Channel 7, Accel Channel 0, Accel Channel 1, Accel Channel 2, Other, Other, Other, Other, Other, Other, Other, Analog Channel 0, Analog Channel 1, Analog Channel 2, Timestamp, Other, Timestamp (Formatted)
0.0, 0.0, 0.0, 0.0, 0.0, 0.0, 0.0, 0.0, 0.0, 0.044, 1.018, -0.07, 192.0, 1.0, 96.0, 31.0, 208.0, 253.0, 208.0, 0.0, 0.0, 0.0, 1.694076875824817E9, 0.0, 2023-09-07 16:54:35.824
1.0, 4286.997531294529, -33809.40512530865, -4343.86036918883, -10823.072293170964, 1724.9735265938673, 5892.12100411904, 4170.366128726737, 19774.230691698875, 0.044, 1.018, -0.07, 192.0, 0.0, 0.0, 0.0, 0.0, 0.0, 0.0, 0.0, 0.0, 0.0, 1.694076875884462E9, 0.0, 2023-09-07 16:54:35.884
2.0, 4561.074621805504, -33408.37012629153, -4138.269023688916, -10568.016537191455, 1966.9311603225663, 6119.326486507236, 4386.976884243118, 19487.860141737478, 0.044, 1.018, -0.07, 192.0, 0.0, 0.0, 0.0, 0.0, 0.0, 0.0, 0.0, 0.0, 0.0, 1.694076875884508E9, 0.0, 2023-09-07 16:54:35.884
3.0, 4393.302427923969, -33388.14179755948, -4232.16870214566, -9870.262130530135, 1765.653701502526, 6025.337401072669, 4190.013312102951, 19623.043492203178, 0.044, 1.018, -0.07, 192.0, 0.0, 0.0, 0.0, 0.0, 0.0, 0.0, 0.0, 0.0, 0.0, 1.694076875884517E9, 0.0, 2023-09-07 16:54:35.884
4.0, 4146.874445304209, -33764.18754627556, -4457.273120555058, -10217.652942854518, 1540.571634837584, 5775.735470740256, 3962.7854779703, 19833.50751799435, 0.044, 1.018, -0.07, 192.0, 0.0, 0.0, 0.0, 0.0, 0.0, 0.0, 0.0, 0.0, 0.0, 1.694076875884525E9, 0.0, 2023-09-07 16:54:35.884
5.0, 4248.798400020409, -33840.675215801624, -4381.545410340477, -10809.415377308773, 1679.1971539493984, 5842.701297128356, 4108.250630885438, 19777.784619067268, 0.044, 1.018, -0.07, 192.0, 0.0, 0.0, 0.0, 0.0, 0.0, 0.0, 0.0, 0.0, 0.0, 1.694076875884533E9, 0.0, 2023-09-07 16:54:35.884
6.0, 4558.258302004136, -33453.61005706907, -4149.1990267275605, -10680.35640482383, 1959.868009074689, 6094.784271095308, 4370.81657300193, 19510.457755381794, 0.044, 1.018, -0.07, 192.0, 0.0, 0.0, 0.0, 0.0, 0.0, 0.0, 0.0, 0.0, 0.0, 1.694076875884542E9, 0.0, 2023-09-07 16:54:35.884
7.0, 4455.954367632195, -33326.45098286283, -4192.11437608175, -9896.324264565023, 1810.1783764574977, 6070.800849294764, 4233.956841702085, 19559.49748271674, 0.044, 1.018, -0.07, 192.0, 0.0, 0.0, 0.0, 0.0, 0.0, 0.0, 0.0, 0.0, 0.0, 1.69407687588455E9, 0.0, 2023-09-07 16:54:35.884
8.0, 4155.479866919502, -33713.583196828746, -4445.650213438298, -10103.033197287703, 1534.6484225569277, 5791.046415692141, 3975.3471583541823, 19843.185823343494, 0.048, 1.016, -0.068, 192.0, 1.0, 128.0, 31.0, 192.0, 253.0, 224.0, 0.0, 0.0, 0.0, 1.694076875884559E9, 0.0, 2023-09-07 16:54:35.884
9.0, 4238.427190593146, -33831.95803546406, -4385.032282475506, -10746.584623644903, 1663.886208997513, 5839.01325929323, 4102.126252904684, 19800.471639689404, 0.048, 1.016, -0.068, 192.0, 0.0, 0.0, 0.0, 0.0, 0.0, 0.0, 0.0, 0.0, 0.0, 1.694076875884568E9, 0.0, 2023-09-07 16:54:35.884
10.0, 4550.323432722501, -33496.726572123356, -4140.884177790186, -10757.425219705729, 1973.614331914703, 6114.833785871719, 4395.3811401583125, 19597.338986079572, 0.048, 1.016, -0.068, 192.0, 0.0, 0.0, 0.0, 0.0, 0.0, 0.0, 0.0, 0.0, 0.0, 1.694076875884576E9, 0.0, 2023-09-07 16:54:35.884
11.0, 4477.568504520476, -33291.51520627918, -4165.716965880032, -9960.764343829673, 1863.330824772218, 6110.095216047194, 4295.915877332196, 19552.322572746583, 0.048, 1.016, -0.068, 192.0, 0.0, 0.0, 0.0, 0.0, 0.0, 0.0, 0.0, 0.0, 0.0, 1.694076875884584E9, 0.0, 2023-09-07 16:54:35.884
12.0, 4139.34190742277, -33684.213004614474, -4446.298414027502, -10020.264687569701, 1527.6299747979613, 5788.453613335325, 3972.0614519192522, 19830.15475632605, 0.048, 1.016, -0.068, 192.0, 0.0, 0.0, 0.0, 0.0, 0.0, 0.0, 0.0, 0.0, 0.0, 1.694076875884593E9, 0.0, 2023-09-07 16:54:35.884
13.0, 4195.2212685610375, -33856.969637509545, -4435.949556344695, -10687.419556071705, 1597.6132866875275, 5790.286456380661, 4046.6045196777013, 19786.21122672692, 0.048, 1.016, -0.068, 192.0, 0.0, 0.0, 0.0, 0.0, 0.0, 0.0, 0.0, 0.0, 0.0, 1.694076875884601E9, 0.0, 2023-09-07 16:54:35.884
14.0, 4511.923135748284, -33570.24145963686, -4181.832573632309, -10843.457084114205, 1931.973031994466, 6075.226494696915, 4323.408523012224, 19625.6809980489, 0.048, 1.016, -0.068, 192.0, 0.0, 0.0, 0.0, 0.0, 0.0, 0.0, 0.0, 0.0, 0.0, 1.694076875884609E9, 0.0, 2023-09-07 16:54:35.884
15.0, 4549.943453066761, -33258.479327974244, -4129.663602073622, -10055.066353686614, 1917.1538254205973, 6145.232158330937, 4336.081962118383, 19509.362519903483, 0.048, 1.016, -0.068, 192.0, 0.0, 0.0, 0.0, 0.0, 0.0, 0.0, 0.0, 0.0, 0.0, 1.694076875884617E9, 0.0, 2023-09-07 16:54:35.884
16.0, 4181.653759676667, -33619.79527709428, -4417.375256702335, -9932.668201049353, 1557.4919053902515, 5825.266936453216, 4021.9505455434974, 19803.623235657604, 0.048, 1.016, -0.068, 192.0, 0.0, 0.0, 0.0, 0.0, 0.0, 0.0, 0.0, 0.0, 0.0, 1.69407687594418E9, 0.0, 2023-09-07 16:54:35.944
17.0, 4147.567349382323, -33866.13385273622, -4469.253655583102, -10618.553831404904, 1567.7290043507821, 5758.256406576205, 4020.587089131724, 19784.937177292966, 0.058, 1.014, -0.066, 192.0, 1.0, 208.0, 31.0, 176.0, 253.0, 240.0, 0.0, 0.0, 0.0, 1.694076875944226E9, 0.0, 2023-09-07 16:54:35.944
18.0, 4448.064201839471, -33662.66592295956, -4223.004486918984, -10920.816471674023, 1876.4289470230278, 6044.492846070868, 4306.264735015004, 19667.434056691418, 0.058, 1.014, -0.066, 192.0, 0.0, 0.0, 0.0, 0.0, 0.0, 0.0, 0.0, 0.0, 0.0, 1.694076875944255E9, 0.0, 2023-09-07 16:54:35.944
19.0, 4558.638281659875, -33275.86898516047, -4123.583927581779, -10201.202058935412, 1944.4453054005273, 6178.513905824889, 4338.674764475199, 19503.14873494491, 0.058, 1.014, -0.066, 192.0, 0.0, 0.0, 0.0, 0.0, 0.0, 0.0, 0.0, 0.0, 0.0, 1.694076875944267E9, 0.0, 2023-09-07 16:54:35.944
20.0, 4207.000637888985, -33559.55732578723, -4386.7533667985645, -9879.00166261216, 1597.1886035428768, 5877.659425456456, 4031.4053334480923, 19786.34533719365, 0.058, 1.014, -0.066, 192.0, 0.0, 0.0, 0.0, 0.0, 0.0, 0.0, 0.0, 0.0, 0.0, 1.694076875944295E9, 0.0, 2023-09-07 16:54:35.944
21.0, 4109.569383808302, -33864.591582368805, -4500.970780965184, -10524.721208181527, 1542.5609400941064, 5745.873540147965, 3985.3383881257046, 19806.752479881347, 0.058, 1.014, -0.066, 192.0, 0.0, 0.0, 0.0, 0.0, 0.0, 0.0, 0.0, 0.0, 0.0, 1.694076875944306E9, 0.0, 2023-09-07 16:54:35.944
22.0, 4382.148907440771, -33744.138031499155, -4280.023787024473, -10956.936890713798, 1832.7759901018132, 5984.768984886287, 4261.740060060031, 19683.013222576767, 0.058, 1.014, -0.066, 192.0, 0.0, 0.0, 0.0, 0.0, 0.0, 0.0, 0.0, 0.0, 0.0, 1.694076875944318E9, 0.0, 2023-09-07 16:54:35.944
23.0, 4579.71597668123, -33307.474351820274, -4114.710285033022, -10334.99960124488, 1984.8125558868119, 6183.252475649414, 4371.91180848024, 19472.012754918665, 0.058, 1.014, -0.066, 192.0, 0.0, 0.0, 0.0, 0.0, 0.0, 0.0, 0.0, 0.0, 0.0, 1.69407687594433E9, 0.0, 2023-09-07 16:54:35.944
24.0, 4259.7284030590545, -33497.59829015712, -4337.512473763522, -9827.257374198125, 1649.2011128903764, 5948.335641424137, 4062.8542378967095, 19734.57869703516, 0.058, 1.014, -0.066, 192.0, 0.0, 0.0, 0.0, 0.0, 0.0, 0.0, 0.0, 0.0, 0.0, 1.694076875944342E9, 0.0, 2023-09-07 16:54:35.944
25.0, 4108.451796585536, -33837.79184076689, -4499.316751875491, -10393.360006017687, 1519.605698538506, 5748.175769826862, 3967.613454772646, 19817.05663407524, 0.058, 1.014, -0.066, 192.0, 0.0, 0.0, 0.0, 0.0, 0.0, 0.0, 0.0, 0.0, 0.0, 1.694076875944352E9, 0.0, 2023-09-07 16:54:35.944
26.0, 4326.984802125073, -33795.14471234616, -4321.32981077788, -10945.69396325278, 1772.2027626279312, 5941.428952387447, 4218.556489772379, 19723.782804463244, 0.058, 1.014, -0.066, 192.0, 0.0, 0.0, 0.0, 0.0, 0.0, 0.0, 0.0, 0.0, 0.0, 1.694076875944363E9, 0.0, 2023-09-07 16:54:35.944
27.0, 4572.4740114777105, -33355.932933799384, -4116.833700756276, -10483.661053617127, 1973.6366836591583, 6170.26611212088, 4401.460814650156, 19508.870781525467, 0.06, 1.024, -0.062, 192.0, 1.0, 224.0, 32.0, 0.0, 254.0, 16.0, 0.0, 0.0, 0.0, 1.694076875944374E9, 0.0, 2023-09-07 16:54:35.944
28.0, 4307.695246660143, -33442.21066739687, -4297.949886077629, -9826.363304419912, 1679.1524504604877, 5983.785508130254, 4129.507139862435, 19685.27074876675, 0.06, 1.024, -0.062, 192.0, 0.0, 0.0, 0.0, 0.0, 0.0, 0.0, 0.0, 0.0, 0.0, 1.694076875944402E9, 0.0, 2023-09-07 16:54:35.944
29.0, 4078.4781072709693, -33811.43913405408, -4508.36920837989, -10288.955007666947, 1491.4648522692744, 5739.615051700479, 3920.6077361831353, 19824.142137067574, 0.06, 1.024, -0.062, 192.0, 0.0, 0.0, 0.0, 0.0, 0.0, 0.0, 0.0, 0.0, 0.0, 1.694076875944429E9, 0.0, 2023-09-07 16:54:35.944
30.0, 4263.572903105367, -33831.734518019504, -4367.016776444528, -10915.049721604553, 1703.2252792388535, 5885.393129037992, 4124.947383993553, 19727.023807409263, 0.06, 1.024, -0.062, 192.0, 0.0, 0.0, 0.0, 0.0, 0.0, 0.0, 0.0, 0.0, 0.0, 1.694076875944442E9, 0.0, 2023-09-07 16:54:35.944
31.0, 4549.161142010826, -33425.04452765519, -4140.973584768008, -10632.814244367391, 1952.7825060823568, 6130.390600012613, 4387.669788321232, 19509.787203048134, 0.06, 1.024, -0.062, 192.0, 0.0, 0.0, 0.0, 0.0, 0.0, 0.0, 0.0, 0.0, 0.0, 1.694076876004528E9, 0.0, 2023-09-07 16:54:36.004
32.0, 4362.881703720296, -33382.59856493456, -4254.431039623147, -9848.335069219478, 1728.4827504733505, 6016.955496901929, 4191.533230725912, 19617.902590978454, 0.06, 1.024, -0.062, 192.0, 0.0, 0.0, 0.0, 0.0, 0.0, 0.0, 0.0, 0.0, 0.0, 1.694076876004598E9, 0.0, 2023-09-07 16:54:36.004
33.0, 4091.129194632673, -33770.73660740097, -4496.969818707683, -10164.142866628512, 1476.1762590618443, 5724.4382172153255, 3947.1839603404956, 19808.473564204403, 0.06, 1.024, -0.062, 192.0, 0.0, 0.0, 0.0, 0.0, 0.0, 0.0, 0.0, 0.0, 0.0, 1.694076876004611E9, 0.0, 2023-09-07 16:54:36.004
34.0, 4239.634184793733, -33867.83258531482, -4400.857317549863, -10855.258805186606, 1650.5422175576948, 5805.999732732741, 4123.494520603957, 19729.750720232812, 0.06, 1.024, -0.062, 192.0, 0.0, 0.0, 0.0, 0.0, 0.0, 0.0, 0.0, 0.0, 0.0, 1.694076876004624E9, 0.0, 2023-09-07 16:54:36.004
35.0, 4549.563473411021, -33483.67315336146, -4139.967756267519, -10755.45826619366, 1946.5016658904156, 6114.051474815783, 4401.527869883522, 19539.023284795676, 0.06, 1.024, -0.062, 192.0, 0.0, 0.0, 0.0, 0.0, 0.0, 0.0, 0.0, 0.0, 0.0, 1.694076876004637E9, 0.0, 2023-09-07 16:54:36.004
36.0, 4443.1021145703935, -33294.465636547284, -4184.313617266848, -9885.304854548556, 1808.300829923252, 6076.209971452949, 4262.611778093788, 19577.043602114154, 0.06, 1.024, -0.062, 192.0, 0.0, 0.0, 0.0, 0.0, 0.0, 0.0, 0.0, 0.0, 0.0, 1.694076876004649E9, 0.0, 2023-09-07 16:54:36.004
37.0, 4130.468264874014, -33689.19744362801, -4452.780419919542, -10032.513443531208, 1507.088721643534, 5791.515802325703, 3964.350100082171, 19838.87193666362, 0.05, 1.024, -0.048, 192.0, 1.0, 144.0, 32.0, 0.0, 254.0, 128.0, 0.0, 0.0, 0.0, 1.694076876004661E9, 0.0, 2023-09-07 16:54:36.004
38.0, 4180.513820709446, -33877.91322206417, -4438.810579634975, -10770.970376845644, 1597.568583198617, 5796.612000061513, 4040.4130864635813, 19754.985839722853, 0.05, 1.024, -0.048, 192.0, 0.0, 0.0, 0.0, 0.0, 0.0, 0.0, 0.0, 0.0, 0.0, 1.694076876004674E9, 0.0, 2023-09-07 16:54:36.004
39.0, 4506.804586268018, -33544.98398840237, -4172.221323516527, -10870.48034316067, 1939.7290873204574, 6080.926189533018, 4351.839941959374, 19577.0212503697, 0.05, 1.024, -0.048, 192.0, 0.0, 0.0, 0.0, 0.0, 0.0, 0.0, 0.0, 0.0, 0.0, 1.694076876004686E9, 0.0, 2023-09-07 16:54:36.004
40.0, 4484.385786579345, -33276.83011017205, -4170.0979077932725, -9983.004329562704, 1857.1170398136426, 6119.952335351984, 4297.748720377532, 19544.00772380921, 0.05, 1.024, -0.048, 192.0, 0.0, 0.0, 0.0, 0.0, 0.0, 0.0, 0.0, 0.0, 0.0, 1.694076876004698E9, 0.0, 2023-09-07 16:54:36.004
41.0, 4150.24955871696, -33662.688274704014, -4459.776515934052, -9959.11031473998, 1500.405550051397, 5814.783968303677, 3977.582332799713, 19814.329721251695, 0.05, 1.024, -0.048, 192.0, 0.0, 0.0, 0.0, 0.0, 0.0, 0.0, 0.0, 0.0, 0.0, 1.69407687600471E9, 0.0, 2023-09-07 16:54:36.004
42.0, 4165.672262391122, -33877.51089066397, -4480.474231299667, -10686.950169438145, 1562.8563240595252, 5748.511045993691, 4011.8252053052433, 19752.70596178841, 0.05, 1.024, -0.048, 192.0, 0.0, 0.0, 0.0, 0.0, 0.0, 0.0, 0.0, 0.0, 0.0, 1.694076876004722E9, 0.0, 2023-09-07 16:54:36.004
43.0, 4491.806565738508, -33631.55229467777, -4197.92582964013, -10949.873739465922, 1912.3482003627064, 6046.660965283033, 4353.091639648872, 19606.36909083952, 0.05, 1.024, -0.048, 192.0, 0.0, 0.0, 0.0, 0.0, 0.0, 0.0, 0.0, 0.0, 0.0, 1.694076876004734E9, 0.0, 2023-09-07 16:54:36.004
44.0, 4545.204883242236, -33278.17121483937, -4134.223357942505, -10092.974912282814, 1916.5950318092148, 6133.989230869917, 4350.387078569779, 19505.406261134896, 0.05, 1.024, -0.048, 192.0, 0.0, 0.0, 0.0, 0.0, 0.0, 0.0, 0.0, 0.0, 0.0, 1.694076876004746E9, 0.0, 2023-09-07 16:54:36.004
45.0, 4179.128012553217, -33613.38032643561, -4420.929184070728, -9877.4817439892, 1540.9963179822348, 5822.271802696205, 4000.3140569107604, 19773.090752731652, 0.05, 1.024, -0.048, 192.0, 0.0, 0.0, 0.0, 0.0, 0.0, 0.0, 0.0, 0.0, 0.0, 1.694076876004759E9, 0.0, 2023-09-07 16:54:36.004
46.0, 4089.8551451987205, -33909.92092012417, -4520.774426552585, -10592.111717714277, 1510.3520763340089, 5691.804670310577, 3965.579446027213, 19745.598107051625, 0.05, 1.024, -0.048, 192.0, 0.0, 0.0, 0.0, 0.0, 0.0, 0.0, 0.0, 0.0, 0.0, 1.694076876064819E9, 0.0, 2023-09-07 16:54:36.064
47.0, 4408.4122071757565, -33736.42667966207, -4249.088972698328, -11015.409054208882, 1860.2462840373855, 5979.4269179614685, 4301.213240768104, 19611.26412287523, 0.056, 1.002, -0.038, 192.0, 1.0, 192.0, 31.0, 80.0, 254.0, 208.0, 0.0, 0.0, 0.0, 1.694076876064844E9, 0.0, 2023-09-07 16:54:36.064
48.0, 4577.458450491244, -33292.0069446572, -4108.742369263455, -10232.606259895118, 1950.0555932588093, 6154.083449135238, 4380.897209751273, 19477.623042776948, 0.056, 1.002, -0.038, 192.0, 0.0, 0.0, 0.0, 0.0, 0.0, 0.0, 0.0, 0.0, 0.0, 1.694076876064877E9, 0.0, 2023-09-07 16:54:36.064
49.0, 4236.974327203551, -33536.80324993173, -4359.1042589073495, -9806.023216965583, 1599.4684814773182, 5894.959675664863, 4053.265339525383, 19744.94990646242, 0.056, 1.002, -0.038, 192.0, 0.0, 0.0, 0.0, 0.0, 0.0, 0.0, 0.0, 0.0, 0.0, 1.694076876064885E9, 0.0, 2023-09-07 16:54:36.064
50.0, 4112.698628032044, -33862.46816664555, -4497.08157742996, -10445.707791532015, 1505.0323611536458, 5718.671467145857, 3962.4949052923807, 19791.083907018176, 0.056, 1.002, -0.038, 192.0, 0.0, 0.0, 0.0, 0.0, 0.0, 0.0, 0.0, 0.0, 0.0, 1.694076876064892E9, 0.0, 2023-09-07 16:54:36.064
51.0, 4370.794221257475, -33797.08931411378, -4283.398900437224, -11022.80748162359, 1798.6672280630146, 5935.773961040254, 4254.073411711862, 19673.13375152752, 0.056, 1.002, -0.038, 192.0, 0.0, 0.0, 0.0, 0.0, 0.0, 0.0, 0.0, 0.0, 0.0, 1.694076876064899E9, 0.0, 2023-09-07 16:54:36.064
52.0, 4577.369043513423, -33332.64241607695, -4097.655904013623, -10393.225895550955, 1963.5113434209043, 6169.930835954051, 4426.517120184555, 19498.52192384266, 0.056, 1.002, -0.038, 192.0, 0.0, 0.0, 0.0, 0.0, 0.0, 0.0, 0.0, 0.0, 0.0, 1.694076876064908E9, 0.0, 2023-09-07 16:54:36.064
53.0, 4286.125813260772, -33450.10083318959, -4296.832298854863, -9765.834780434941, 1657.6053688055717, 5960.293824707726, 4146.986204026485, 19710.12588860105, 0.056, 1.002, -0.038, 192.0, 0.0, 0.0, 0.0, 0.0, 0.0, 0.0, 0.0, 0.0, 0.0, 1.694076876064915E9, 0.0, 2023-09-07 16:54:36.064
54.0, 4080.668578227589, -33821.92210220362, -4497.305094874513, -10317.498185336373, 1484.3346457880314, 5719.5655369240685, 3970.876809463121, 19814.82145962971, 0.056, 1.002, -0.038, 192.0, 0.0, 0.0, 0.0, 0.0, 0.0, 0.0, 0.0, 0.0, 0.0, 1.694076876064922E9, 0.0, 2023-09-07 16:54:36.064
55.0, 4311.8526711288305, -33833.99204420949, -4323.833206156874, -10999.762833090166, 1744.9559861369119, 5898.714768733355, 4230.000582933496, 19699.352347773594, 0.056, 1.002, -0.038, 192.0, 0.0, 0.0, 0.0, 0.0, 0.0, 0.0, 0.0, 0.0, 0.0, 1.694076876064929E9, 0.0, 2023-09-07 16:54:36.064
56.0, 4584.186325572291, -33373.903736341446, -4098.617029025201, -10557.935900442113, 1979.9175238510995, 6152.74234446792, 4423.879614338829, 19503.886342511934, 0.056, 1.002, -0.038, 192.0, 0.0, 0.0, 0.0, 0.0, 0.0, 0.0, 0.0, 0.0, 0.0, 1.694076876064936E9, 0.0, 2023-09-07 16:54:36.064
57.0, 4346.877854690297, -33394.7802656627, -4269.741984575032, -9776.205989862203, 1700.341904204119, 6018.028380635784, 4156.508047164446, 19667.389353202507, 0.044, 1.01, -0.03, 192.0, 1.0, 96.0, 31.0, 144.0, 255.0, 16.0, 0.0, 0.0, 0.0, 1.694076876064943E9, 0.0, 2023-09-07 16:54:36.064
58.0, 4109.703494275033, -33795.56939549081, -4488.833783725951, -10193.781279776249, 1479.1713928188556, 5754.747182696722, 3971.815582730244, 19849.578422257713, 0.044, 1.01, -0.03, 192.0, 0.0, 0.0, 0.0, 0.0, 0.0, 0.0, 0.0, 0.0, 0.0, 1.694076876064951E9, 0.0, 2023-09-07 16:54:36.064
59.0, 4284.672949871177, -33852.34282640729, -4346.497875034556, -10930.807701445545, 1728.7062679179035, 5890.086995373606, 4208.0735216228395, 19738.51260405929, 0.044, 1.01, -0.03, 192.0, 0.0, 0.0, 0.0, 0.0, 0.0, 0.0, 0.0, 0.0, 0.0, 1.694076876064957E9, 0.0, 2023-09-07 16:54:36.064
60.0, 4585.2145058172355, -33417.020251395734, -4096.583020279768, -10705.569172569416, 1998.2683060489067, 6175.988158701439, 4448.757105917586, 19555.608279181513, 0.044, 1.01, -0.03, 192.0, 0.0, 0.0, 0.0, 0.0, 0.0, 0.0, 0.0, 0.0, 0.0, 1.694076876064964E9, 0.0, 2023-09-07 16:54:36.064
61.0, 4415.430654934723, -33320.348956626534, -4225.396123575702, -9794.757937760109, 1769.1182218930987, 6064.497657358367, 4233.398048090702, 19631.201878929365, 0.044, 1.01, -0.03, 192.0, 0.0, 0.0, 0.0, 0.0, 0.0, 0.0, 0.0, 0.0, 0.0, 1.69407687612506E9, 0.0, 2023-09-07 16:54:36.125
62.0, 4107.781244251877, -33743.62394137668, -4493.952333206217, -10068.410345126433, 1479.4843172412297, 5744.7559529252, 3976.64355953259, 19842.31410530974, 0.044, 1.01, -0.03, 192.0, 0.0, 0.0, 0.0, 0.0, 0.0, 0.0, 0.0, 0.0, 0.0, 1.694076876125087E9, 0.0, 2023-09-07 16:54:36.125
63.0, 4236.8402167368195, -33879.72371336505, -4400.052654749472, -10843.255918414106, 1655.66076703796, 5824.842253308565, 4143.924015036108, 19741.82066223868, 0.044, 1.01, -0.03, 192.0, 0.0, 0.0, 0.0, 0.0, 0.0, 0.0, 0.0, 0.0, 0.0, 1.694076876125094E9, 0.0, 2023-09-07 16:54:36.125
64.0, 4571.267017277124, -33506.47193270587, -4112.139834420662, -10836.125711932864, 1997.3295327817839, 6140.6053472286885, 4446.633690194331, 19573.176750323386, 0.044, 1.01, -0.03, 192.0, 0.0, 0.0, 0.0, 0.0, 0.0, 0.0, 0.0, 0.0, 0.0, 1.694076876125128E9, 0.0, 2023-09-07 16:54:36.125
65.0, 4487.403272080812, -33264.22372629926, -4168.198009514572, -9852.872473343907, 1825.1093417536429, 6113.962067837962, 4303.381359980269, 19592.376898810497, 0.044, 1.01, -0.03, 192.0, 0.0, 0.0, 0.0, 0.0, 0.0, 0.0, 0.0, 0.0, 0.0, 1.694076876125136E9, 0.0, 2023-09-07 16:54:36.125
66.0, 4159.123201265717, -33678.80388245629, -4462.5034287576, -9951.175445458346, 1490.5931342355175, 5782.23982837675, 3981.069204934741, 19836.234430817894, 0.044, 1.01, -0.03, 192.0, 0.0, 0.0, 0.0, 0.0, 0.0, 0.0, 0.0, 0.0, 0.0, 1.694076876125143E9, 0.0, 2023-09-07 16:54:36.125
67.0, 4191.73439642601, -33895.638155417226, -4458.614225222376, -10746.584623644903, 1594.1040628080443, 5752.80258092911, 4058.6968134280223, 19732.43292956745, 0.05, 0.99, -0.032, 192.0, 1.0, 144.0, 30.0, 240.0, 255.0, 0.0, 0.0, 0.0, 0.0, 1.69407687612515E9, 0.0, 2023-09-07 16:54:36.125
68.0, 4549.18349375528, -33575.091788183665, -4146.896797048664, -10951.304251111062, 1956.7387648509462, 6092.794965838786, 4420.459797437167, 19601.943445437366, 0.05, 0.99, -0.032, 192.0, 0.0, 0.0, 0.0, 0.0, 0.0, 0.0, 0.0, 0.0, 0.0, 1.694076876125157E9, 0.0, 2023-09-07 16:54:36.125
69.0, 4548.378830954889, -33232.77482185064, -4139.6324801006895, -9953.835303048529, 1878.909990657567, 6144.919233908562, 4345.603805256344, 19569.35460202153, 0.05, 0.99, -0.032, 192.0, 0.0, 0.0, 0.0, 0.0, 0.0, 0.0, 0.0, 0.0, 0.0, 1.694076876125164E9, 0.0, 2023-09-07 16:54:36.125
70.0, 4182.324312010326, -33606.54069263228, -4429.869881852851, -9846.23400524068, 1532.1897306668438, 5824.43992190837, 4022.911670555076, 19828.880706892098, 0.05, 0.99, -0.032, 192.0, 0.0, 0.0, 0.0, 0.0, 0.0, 0.0, 0.0, 0.0, 0.0, 1.694076876125171E9, 0.0, 2023-09-07 16:54:36.125
71.0, 4161.53718966689, -33866.78205332542, -4468.158420104793, -10599.331331173342, 1568.1983909843434, 5730.942574851821, 4054.6958511705225, 19793.095564019153, 0.05, 0.99, -0.032, 192.0, 0.0, 0.0, 0.0, 0.0, 0.0, 0.0, 0.0, 0.0, 0.0, 1.694076876125178E9, 0.0, 2023-09-07 16:54:36.125
72.0, 4490.331350604457, -33677.52983302234, -4194.193088316094, -11026.920202603365, 1916.6397352981253, 6033.831063965687, 4377.097413193871, 19641.483681378806, 0.05, 0.99, -0.032, 192.0, 0.0, 0.0, 0.0, 0.0, 0.0, 0.0, 0.0, 0.0, 0.0, 1.694076876125185E9, 0.0, 2023-09-07 16:54:36.125
73.0, 4586.041520362082, -33238.60862715347, -4105.367255850703, -10096.19356348438, 1942.09837223272, 6175.429365090056, 4387.602733087866, 19536.139909760943, 0.05, 0.99, -0.032, 192.0, 0.0, 0.0, 0.0, 0.0, 0.0, 0.0, 0.0, 0.0, 0.0, 1.694076876125192E9, 0.0, 2023-09-07 16:54:36.125
74.0, 4216.410722304669, -33545.811002947215, -4386.529849354011, -9768.98637640314, 1581.0506440461452, 5882.442698769892, 4041.3742114751594, 19791.888569818566, 0.05, 0.99, -0.032, 192.0, 0.0, 0.0, 0.0, 0.0, 0.0, 0.0, 0.0, 0.0, 0.0, 1.694076876125199E9, 0.0, 2023-09-07 16:54:36.125
75.0, 4105.344904106249, -33879.7460651095, -4513.398350882334, -10492.26647523242, 1508.3180675885758, 5711.943592064809, 3970.0274431738194, 19792.8720465746, 0.05, 0.99, -0.032, 192.0, 0.0, 0.0, 0.0, 0.0, 0.0, 0.0, 0.0, 0.0, 0.0, 1.694076876125206E9, 0.0, 2023-09-07 16:54:36.125
76.0, 4420.862128837362, -33774.06701732481, -4257.917911758174, -11082.978377697274, 1843.5048274403607, 5979.739842383843, 4294.150089520227, 19647.473948892828, 0.05, 0.99, -0.032, 192.0, 0.0, 0.0, 0.0, 0.0, 0.0, 0.0, 0.0, 0.0, 0.0, 1.694076876184696E9, 0.0, 2023-09-07 16:54:36.184
77.0, 4606.001628160671, -33274.43847351533, -4100.986313937463, -10282.115373863624, 1956.6270061286696, 6176.390490101635, 4387.759195299053, 19520.337226431042, 0.058, 1.006, -0.038, 192.0, 1.0, 208.0, 31.0, 112.0, 254.0, 208.0, 0.0, 0.0, 0.0, 1.694076876184756E9, 0.0, 2023-09-07 16:54:36.184
78.0, 4261.3153769153805, -33491.563319154186, -4350.521189036512, -9729.69200965071, 1623.4519032778626, 5905.085015903118, 4076.868781670187, 19737.57383079217, 0.058, 1.006, -0.038, 192.0, 0.0, 0.0, 0.0, 0.0, 0.0, 0.0, 0.0, 0.0, 0.0, 1.694076876184765E9, 0.0, 2023-09-07 16:54:36.184
79.0, 4087.2623428419047, -33865.575059124836, -4518.360438151412, -10361.262900979866, 1495.4211110378637, 5689.189516209307, 3948.1897888409844, 19816.900171864054, 0.058, 1.006, -0.038, 192.0, 0.0, 0.0, 0.0, 0.0, 0.0, 0.0, 0.0, 0.0, 0.0, 1.694076876184773E9, 0.0, 2023-09-07 16:54:36.184
80.0, 4356.176180383704, -33825.587788294295, -4302.42023496869, -11082.106659663517, 1782.7304342663806, 5916.953792208886, 4274.726423588565, 19691.08220232513, 0.058, 1.006, -0.038, 192.0, 0.0, 0.0, 0.0, 0.0, 0.0, 0.0, 0.0, 0.0, 0.0, 1.69407687618485E9, 0.0, 2023-09-07 16:54:36.184
81.0, 4610.360218329456, -33318.314947881096, -4091.643284755145, -10480.241236715465, 1981.2362767739628, 6178.60331280271, 4446.812504149974, 19534.68704637135, 0.058, 1.006, -0.038, 192.0, 0.0, 0.0, 0.0, 0.0, 0.0, 0.0, 0.0, 0.0, 0.0, 1.694076876184858E9, 0.0, 2023-09-07 16:54:36.184
82.0, 4312.456168229123, -33409.0853821141, -4304.23072626957, -9716.884460077817, 1665.1602584314655, 5964.048917776217, 4128.657773573133, 19703.532123986737, 0.058, 1.006, -0.038, 192.0, 0.0, 0.0, 0.0, 0.0, 0.0, 0.0, 0.0, 0.0, 0.0, 1.694076876184866E9, 0.0, 2023-09-07 16:54:36.184
83.0, 4090.3021800878264, -33824.69371851608, -4522.428455642278, -10238.2165477534, 1451.4999331831852, 5694.419824411849, 3921.9264891059984, 19839.006047130355, 0.058, 1.006, -0.038, 192.0, 0.0, 0.0, 0.0, 0.0, 0.0, 0.0, 0.0, 0.0, 0.0, 1.694076876184873E9, 0.0, 2023-09-07 16:54:36.184
84.0, 4314.356066507825, -33865.99974226949, -4334.42793302869, -11021.265211256172, 1731.3661255080851, 5863.935454360897, 4223.451521808091, 19712.204600835397, 0.058, 1.006, -0.038, 192.0, 0.0, 0.0, 0.0, 0.0, 0.0, 0.0, 0.0, 0.0, 0.0, 1.694076876184881E9, 0.0, 2023-09-07 16:54:36.184
85.0, 4632.913128484861, -33378.55289918815, -4070.096203100229, -10648.885148630758, 2000.5258322388927, 6161.347766083213, 4484.765766235086, 19535.62581963847, 0.058, 1.006, -0.038, 192.0, 0.0, 0.0, 0.0, 0.0, 0.0, 0.0, 0.0, 0.0, 0.0, 1.694076876184893E9, 0.0, 2023-09-07 16:54:36.184
86.0, 4393.101262223871, -33335.27992192268, -4241.891710983719, -9722.539451425011, 1726.3146312611857, 6013.356866044625, 4193.343722026792, 19649.843233805088, 0.058, 1.006, -0.038, 192.0, 0.0, 0.0, 0.0, 0.0, 0.0, 0.0, 0.0, 0.0, 0.0, 1.694076876184901E9, 0.0, 2023-09-07 16:54:36.184
87.0, 4091.352712077226, -33772.86002312422, -4496.902763474317, -10104.70957812185, 1468.4872589692186, 5714.312876977072, 3951.4084400425486, 19841.665904720536, 0.054, 1.01, -0.042, 192.0, 1.0, 176.0, 31.0, 144.0, 254.0, 176.0, 0.0, 0.0, 0.0, 1.694076876184908E9, 0.0, 2023-09-07 16:54:36.184
88.0, 4249.804228520898, -33902.209568287086, -4380.4725266066225, -10936.373285814916, 1666.4119561209627, 5817.712046827322, 4184.872410878231, 19740.81483373819, 0.054, 1.01, -0.042, 192.0, 0.0, 0.0, 0.0, 0.0, 0.0, 0.0, 0.0, 0.0, 0.0, 1.694076876184916E9, 0.0, 2023-09-07 16:54:36.184
89.0, 4595.7198257112295, -33484.96955453987, -4093.2749621003823, -10835.879842743856, 1981.5044977074265, 6140.001850128395, 4475.534495775044, 19583.480904517284, 0.054, 1.01, -0.042, 192.0, 0.0, 0.0, 0.0, 0.0, 0.0, 0.0, 0.0, 0.0, 0.0, 1.694076876184926E9, 0.0, 2023-09-07 16:54:36.184
90.0, 4442.051582580993, -33290.844653945525, -4190.773271414432, -9788.745318501631, 1783.982131955878, 6062.10602070165, 4268.490286885534, 19628.385559127993, 0.054, 1.01, -0.042, 192.0, 0.0, 0.0, 0.0, 0.0, 0.0, 0.0, 0.0, 0.0, 0.0, 1.694076876184934E9, 0.0, 2023-09-07 16:54:36.184
91.0, 4137.397305655159, -33700.82035074477, -4450.612300707377, -9970.39794568991, 1496.7622157051821, 5767.554732269613, 4002.750397056389, 19871.706649268468, 0.054, 1.01, -0.042, 192.0, 0.0, 0.0, 0.0, 0.0, 0.0, 0.0, 0.0, 0.0, 0.0, 1.694076876244908E9, 0.0, 2023-09-07 16:54:36.244
92.0, 4205.950105899586, -33900.04144907492, -4419.185748003215, -10810.175336620252, 1615.8746619075134, 5778.507087052713, 4122.734561292477, 19765.781732294767, 0.054, 1.01, -0.042, 192.0, 0.0, 0.0, 0.0, 0.0, 0.0, 0.0, 0.0, 0.0, 0.0, 1.694076876244939E9, 0.0, 2023-09-07 16:54:36.244
93.0, 4549.764639111118, -33567.53689855777, -4123.539224092868, -10970.057364709064, 1968.7192998789908, 6110.87752710313, 4457.653100210798, 19599.9764919253, 0.054, 1.01, -0.042, 192.0, 0.0, 0.0, 0.0, 0.0, 0.0, 0.0, 0.0, 0.0, 0.0, 1.694076876244951E9, 0.0, 2023-09-07 16:54:36.244
94.0, 4488.453804070211, -33251.550287193095, -4156.999785542463, -9879.895732390372, 1839.4368099494948, 6111.5927829257, 4333.086828361372, 19589.15824760893, 0.054, 1.01, -0.042, 192.0, 0.0, 0.0, 0.0, 0.0, 0.0, 0.0, 0.0, 0.0, 0.0, 1.694076876244963E9, 0.0, 2023-09-07 16:54:36.244
95.0, 4178.748032897476, -33638.28016975882, -4428.417018463257, -9859.063906558027, 1512.2743263571651, 5807.3184856556045, 4030.9135950700756, 19851.79124495879, 0.054, 1.01, -0.042, 192.0, 0.0, 0.0, 0.0, 0.0, 0.0, 0.0, 0.0, 0.0, 0.0, 1.694076876245005E9, 0.0, 2023-09-07 16:54:36.245
96.0, 4174.836477617798, -33896.71103915108, -4460.3576612898905, -10677.920064678201, 1573.2051817423323, 5745.650022703412, 4064.620025708679, 19781.830284813677, 0.054, 1.01, -0.042, 192.0, 0.0, 0.0, 0.0, 0.0, 0.0, 0.0, 0.0, 0.0, 0.0, 1.694076876245019E9, 0.0, 2023-09-07 16:54:36.245
97.0, 4521.355571908423, -33683.09541739171, -4168.756803125954, -11083.023081186186, 1928.1732354370638, 6058.90972124454, 4399.247991949081, 19609.78890774118, 0.056, 1.006, -0.048, 192.0, 1.0, 192.0, 31.0, 112.0, 254.0, 128.0, 0.0, 0.0, 0.0, 1.69407687624503E9, 0.0, 2023-09-07 16:54:36.245
98.0, 4562.572188684009, -33262.457938487285, -4114.173843166094, -10036.93908893336, 1900.7923484793125, 6144.583957741733, 4371.509477080045, 19545.95232557682, 0.056, 1.006, -0.048, 192.0, 0.0, 0.0, 0.0, 0.0, 0.0, 0.0, 0.0, 0.0, 0.0, 1.694076876245043E9, 0.0, 2023-09-07 16:54:36.245
99.0, 4203.089082609306, -33616.15194274807, -4383.668826063732, -9794.84734473793, 1555.8155245561034, 5846.523445430213, 4090.2798283433713, 19812.563933439724, 0.056, 1.006, -0.048, 192.0, 0.0, 0.0, 0.0, 0.0, 0.0, 0.0, 0.0, 0.0, 0.0, 1.694076876245056E9, 0.0, 2023-09-07 16:54:36.245
100.0, 4121.505215347435, -33951.89749621123, -4478.529629532055, -10572.75510701598, 1519.6504020274165, 5714.156414765885, 4050.5384267018353, 19798.30352047724, 0.056, 1.006, -0.048, 192.0, 0.0, 0.0, 0.0, 0.0, 0.0, 0.0, 0.0, 0.0, 0.0, 1.694076876245069E9, 0.0, 2023-09-07 16:54:36.245
101.0, 4454.970890876161, -33807.058192140845, -4192.337893526304, -11152.447599464369, 1889.3482553181955, 6021.559956259723, 4399.806785560463, 19654.067713507142, 0.056, 1.006, -0.048, 192.0, 0.0, 0.0, 0.0, 0.0, 0.0, 0.0, 0.0, 0.0, 0.0, 1.694076876245083E9, 0.0, 2023-09-07 16:54:36.245
102.0, 4592.523526254121, -33305.64150877494, -4072.867819412687, -10235.042600040746, 1953.1401339936417, 6169.796725487319, 4431.501559198089, 19536.184613249854, 0.056, 1.006, -0.048, 192.0, 0.0, 0.0, 0.0, 0.0, 0.0, 0.0, 0.0, 0.0, 0.0, 1.694076876245096E9, 0.0, 2023-09-07 16:54:36.245
103.0, 4244.126885429249, -33561.680741510485, -4330.292860304458, -9752.356678528391, 1601.1225105670107, 5890.154050606972, 4128.501311361946, 19783.841941814655, 0.056, 1.006, -0.048, 192.0, 0.0, 0.0, 0.0, 0.0, 0.0, 0.0, 0.0, 0.0, 0.0, 1.694076876245109E9, 0.0, 2023-09-07 16:54:36.245
104.0, 4103.534412805368, -33928.71873721108, -4466.571446248466, -10437.571756550284, 1506.2393553542324, 5709.708417619278, 4043.676441154056, 19841.330628553704, 0.056, 1.006, -0.048, 192.0, 0.0, 0.0, 0.0, 0.0, 0.0, 0.0, 0.0, 0.0, 0.0, 1.694076876245123E9, 0.0, 2023-09-07 16:54:36.245
105.0, 4406.132329241315, -33888.37383846925, -4213.460292036569, -11150.815922119133, 1853.0266705783215, 5967.468734677879, 4381.366596384835, 19687.7964958902, 0.056, 1.006, -0.048, 192.0, 0.0, 0.0, 0.0, 0.0, 0.0, 0.0, 0.0, 0.0, 0.0, 1.694076876245136E9, 0.0, 2023-09-07 16:54:36.245
106.0, 4602.224183347725, -33399.25061455376, -4050.5607784462904, -10440.432779840563, 1987.1594890546191, 6184.928856483562, 4492.343007605435, 19552.54609019114, 0.044, 1.008, -0.064, 192.0, 1.0, 96.0, 31.0, 128.0, 254.0, 0.0, 0.0, 0.0, 0.0, 1.694076876305254E9, 0.0, 2023-09-07 16:54:36.305
107.0, 4283.130679503761, -33546.45920353642, -4293.680702886665, -9740.711419667176, 1639.2322348633093, 5937.427990129947, 4158.609111143245, 19747.72152277488, 0.044, 1.008, -0.064, 192.0, 0.0, 0.0, 0.0, 0.0, 0.0, 0.0, 0.0, 0.0, 0.0, 1.694076876305287E9, 0.0, 2023-09-07 16:54:36.305
108.0, 4062.1836855630504, -33957.57483930288, -4500.344932120434, -10329.27755466432, 1460.0159478206574, 5678.035995726108, 3958.2480738458726, 19837.419073274028, 0.044, 1.008, -0.064, 192.0, 0.0, 0.0, 0.0, 0.0, 0.0, 0.0, 0.0, 0.0, 0.0, 1.694076876305321E9, 0.0, 2023-09-07 16:54:36.305
109.0, 4307.315267004403, -33994.99165952107, -4302.9343250911625, -11136.913137067932, 1753.6731664744816, 5859.822733381121, 4254.69926055661, 19672.351440471582, 0.044, 1.008, -0.064, 192.0, 0.0, 0.0, 0.0, 0.0, 0.0, 0.0, 0.0, 0.0, 0.0, 1.694076876305337E9, 0.0, 2023-09-07 16:54:36.305
110.0, 4602.090072880992, -33483.24847021681, -4043.095295798218, -10654.093105088843, 2003.7221316960017, 6142.102914107194, 4539.169912239303, 19554.44598846984, 0.044, 1.008, -0.064, 192.0, 0.0, 0.0, 0.0, 0.0, 0.0, 0.0, 0.0, 0.0, 0.0, 1.694076876305351E9, 0.0, 2023-09-07 16:54:36.305
111.0, 4330.784598682475, -33486.98121154084, -4239.567129560367, -9752.602547717399, 1692.0494070112, 5986.333606998159, 4240.8858824832305, 19702.99568211981, 0.044, 1.008, -0.064, 192.0, 0.0, 0.0, 0.0, 0.0, 0.0, 0.0, 0.0, 0.0, 0.0, 1.694076876305387E9, 0.0, 2023-09-07 16:54:36.305
112.0, 4067.2128280654943, -33903.729486910044, -4477.166173120281, -10199.145698445524, 1457.1325727859228, 5712.882365331932, 3992.8932777515984, 19849.936050169, 0.044, 1.008, -0.064, 192.0, 0.0, 0.0, 0.0, 0.0, 0.0, 0.0, 0.0, 0.0, 0.0, 1.694076876305397E9, 0.0, 2023-09-07 16:54:36.305
113.0, 4254.945129745618, -33992.95765077563, -4325.397828268746, -11032.239917783729, 1708.3214769746635, 5839.125018015507, 4235.521463813957, 19710.639978723524, 0.044, 1.008, -0.064, 192.0, 0.0, 0.0, 0.0, 0.0, 0.0, 0.0, 0.0, 0.0, 0.0, 1.694076876305407E9, 0.0, 2023-09-07 16:54:36.305
114.0, 4582.733462182697, -33546.52625876979, -4051.1866272910393, -10830.962458963688, 2008.840681176267, 6147.914367665573, 4504.658818800309, 19557.508177460215, 0.044, 1.008, -0.064, 192.0, 0.0, 0.0, 0.0, 0.0, 0.0, 0.0, 0.0, 0.0, 0.0, 1.694076876305416E9, 0.0, 2023-09-07 16:54:36.305
115.0, 4394.688236080198, -33407.27489081322, -4196.07063485034, -9796.121394171882, 1759.305806077219, 6030.567709275211, 4247.74786803101, 19633.951143497365, 0.044, 1.008, -0.064, 192.0, 0.0, 0.0, 0.0, 0.0, 0.0, 0.0, 0.0, 0.0, 0.0, 1.694076876305428E9, 0.0, 2023-09-07 16:54:36.305
116.0, 4067.7492699324216, -33832.36036686425, -4472.047623640015, -10069.192656182368, 1464.57570368954, 5719.543185179614, 3939.9866986258867, 19843.185823343494, 0.03, 1.026, -0.07200000000000001, 192.0, 0.0, 240.0, 32.0, 16.0, 253.0, 192.0, 0.0, 0.0, 0.0, 1.694076876305438E9, 0.0, 2023-09-07 16:54:36.305
117.0, 4160.129029766206, -34017.09753478736, -4412.100245010883, -10934.965125914232, 1605.2575832912426, 5752.08732510654, 4118.443026357058, 19713.880981669543, 0.03, 1.026, -0.07200000000000001, 192.0, 0.0, 0.0, 0.0, 0.0, 0.0, 0.0, 0.0, 0.0, 0.0, 1.694076876305448E9, 0.0, 2023-09-07 16:54:36.305
118.0, 4535.66068835982, -33642.974036094434, -4086.703549230522, -11000.455737168282, 1966.7523463669238, 6114.453806215979, 4498.445033841734, 19585.872541174, 0.03, 1.026, -0.07200000000000001, 192.0, 0.0, 0.0, 0.0, 0.0, 0.0, 0.0, 0.0, 0.0, 0.0, 1.694076876305458E9, 0.0, 2023-09-07 16:54:36.305
119.0, 4451.64048095232, -33355.48589891027, -4144.214587714027, -9879.33693877899, 1812.525309625305, 6089.129279748116, 4318.245270043048, 19612.73933800928, 0.03, 1.026, -0.07200000000000001, 192.0, 0.0, 0.0, 0.0, 0.0, 0.0, 0.0, 0.0, 0.0, 0.0, 1.694076876305468E9, 0.0, 2023-09-07 16:54:36.305
120.0, 4092.4702992999914, -33751.67056938059, -4439.011745335072, -9946.906262267383, 1476.7574044176822, 5749.2039500718065, 4014.3956559176036, 19842.001180887364, 0.03, 1.026, -0.07200000000000001, 192.0, 0.0, 0.0, 0.0, 0.0, 0.0, 0.0, 0.0, 0.0, 0.0, 1.694076876305477E9, 0.0, 2023-09-07 16:54:36.305
121.0, 4127.406075883636, -33976.305601156426, -4441.515140714067, -10784.18025781873, 1553.1333152214665, 5711.004818797686, 4100.42752032608, 19750.448435598428, 0.03, 1.026, -0.07200000000000001, 192.0, 0.0, 0.0, 0.0, 0.0, 0.0, 0.0, 0.0, 0.0, 0.0, 1.694076876365532E9, 0.0, 2023-09-07 16:54:36.365
122.0, 4501.954257721217, -33693.734847752436, -4113.145662921151, -11094.891857491953, 1950.3685176811837, 6067.91747426003, 4466.772611948563, 19608.20193388485, 0.03, 1.026, -0.07200000000000001, 192.0, 0.0, 0.0, 0.0, 0.0, 0.0, 0.0, 0.0, 0.0, 0.0, 1.694076876365581E9, 0.0, 2023-09-07 16:54:36.365
123.0, 4510.112644447404, -33281.903956163405, -4092.515002788902, -9994.984864590748, 1884.4532232824831, 6117.158367295071, 4390.933143011706, 19590.54405576516, 0.03, 1.026, -0.07200000000000001, 192.0, 0.0, 0.0, 0.0, 0.0, 0.0, 0.0, 0.0, 0.0, 0.0, 1.694076876365593E9, 0.0, 2023-09-07 16:54:36.365
124.0, 4154.876369819209, -33664.364655538164, -4384.317026652936, -9827.436188153766, 1520.767989250182, 5810.648895579445, 4048.4373627230366, 19843.141119854587, 0.03, 1.026, -0.07200000000000001, 192.0, 0.0, 0.0, 0.0, 0.0, 0.0, 0.0, 0.0, 0.0, 0.0, 1.694076876365605E9, 0.0, 2023-09-07 16:54:36.365
125.0, 4127.651945072645, -33964.52623182848, -4454.680318198242, -10616.877450570757, 1519.4045328384082, 5707.048560029097, 4058.9650343614862, 19798.035299543775, 0.03, 1.026, -0.07200000000000001, 192.0, 0.0, 0.0, 0.0, 0.0, 0.0, 0.0, 0.0, 0.0, 0.0, 1.694076876365615E9, 0.0, 2023-09-07 16:54:36.365
126.0, 4469.410117794289, -33771.56362194582, -4148.550826138357, -11139.036552791185, 1906.3355811042288, 6030.411247064024, 4443.772666904052, 19648.591536115593, 0.024, 1.028, -0.068, 192.0, 0.0, 192.0, 32.0, 32.0, 253.0, 224.0, 0.0, 0.0, 0.0, 1.694076876365626E9, 0.0, 2023-09-07 16:54:36.365
127.0, 4565.52261895211, -33288.02833414416, -4063.010700107897, -10152.810532189671, 1933.4482471285162, 6149.45663803299, 4435.390762733312, 19570.919224133402, 0.024, 1.028, -0.068, 192.0, 0.0, 0.0, 0.0, 0.0, 0.0, 0.0, 0.0, 0.0, 0.0, 1.694076876365691E9, 0.0, 2023-09-07 16:54:36.365
128.0, 4211.202765846582, -33576.701113784446, -4341.491084276568, -9747.551053470499, 1573.182829997877, 5860.068602570129, 4081.7191102169886, 19821.504631221847, 0.024, 1.028, -0.068, 192.0, 0.0, 0.0, 0.0, 0.0, 0.0, 0.0, 0.0, 0.0, 0.0, 1.694076876365703E9, 0.0, 2023-09-07 16:54:36.365
129.0, 4085.250685840927, -33916.93936788313, -4468.448992782712, -10466.964300509013, 1487.3074278005872, 5707.0038565401865, 4025.7279903564445, 19831.764081926834, 0.024, 1.028, -0.068, 192.0, 0.0, 0.0, 0.0, 0.0, 0.0, 0.0, 0.0, 0.0, 0.0, 1.694076876365714E9, 0.0, 2023-09-07 16:54:36.365
130.0, 4405.461776907656, -33838.50709658946, -4207.246507077993, -11156.716782655332, 1837.7604291153466, 5962.394888686525, 4390.776680800519, 19672.12792302703, 0.024, 1.028, -0.068, 192.0, 0.0, 0.0, 0.0, 0.0, 0.0, 0.0, 0.0, 0.0, 0.0, 1.694076876365727E9, 0.0, 2023-09-07 16:54:36.365
131.0, 4602.224183347725, -33311.72118326678, -4041.128342286151, -10354.155046243079, 1977.481183705471, 6141.45471351799, 4487.403272080812, 19555.58592743706, 0.024, 1.028, -0.068, 192.0, 0.0, 0.0, 0.0, 0.0, 0.0, 0.0, 0.0, 0.0, 0.0, 1.69407687636574E9, 0.0, 2023-09-07 16:54:36.365
132.0, 4275.46403115559, -33477.28055444724, -4291.624342396777, -9700.29946569198, 1626.3799818015077, 5904.54857403619, 4146.2038929705495, 19769.62623234108, 0.024, 1.028, -0.068, 192.0, 0.0, 0.0, 0.0, 0.0, 0.0, 0.0, 0.0, 0.0, 0.0, 1.694076876365753E9, 0.0, 2023-09-07 16:54:36.365
133.0, 4081.2720753278827, -33881.914184321664, -4491.0019029381165, -10329.143444197589, 1461.8711426104478, 5686.529658619125, 3977.6270362886235, 19844.079893121707, 0.024, 1.028, -0.068, 192.0, 0.0, 0.0, 0.0, 0.0, 0.0, 0.0, 0.0, 0.0, 0.0, 1.694076876365766E9, 0.0, 2023-09-07 16:54:36.365
134.0, 4353.091639648872, -33879.38843719821, -4265.785725806442, -11110.202802443839, 1792.3193326377075, 5907.409597326469, 4322.469749745101, 19703.42036526446, 0.024, 1.028, -0.068, 192.0, 0.0, 0.0, 0.0, 0.0, 0.0, 0.0, 0.0, 0.0, 0.0, 1.694076876365779E9, 0.0, 2023-09-07 16:54:36.365
135.0, 4648.425239136844, -33345.94170402786, -4022.1517112435954, -10536.813501931847, 2019.7259807260016, 6194.9647897439945, 4547.864740832418, 19576.30599454713, 0.024, 1.028, -0.068, 192.0, 0.0, 0.0, 0.0, 0.0, 0.0, 0.0, 0.0, 0.0, 0.0, 1.694076876365791E9, 0.0, 2023-09-07 16:54:36.365
136.0, 4347.079020390394, -33404.592681478585, -4251.927644244152, -9681.412241627246, 1685.209773207876, 5962.5737026421675, 4192.9860941155075, 19720.921781172965, 0.02, 1.022, -0.056, 192.0, 0.0, 160.0, 31.0, 240.0, 254.0, 64.0, 0.0, 0.0, 0.0, 1.694076876425825E9, 0.0, 2023-09-07 16:54:36.425
137.0, 4101.276886615382, -33845.77141353743, -4493.281780872558, -10189.422689607465, 1444.6155958909508, 5685.680292329824, 3972.217914130439, 19864.6882015095, 0.02, 1.022, -0.056, 192.0, 0.0, 0.0, 0.0, 0.0, 0.0, 0.0, 0.0, 0.0, 0.0, 1.694076876425849E9, 0.0, 2023-09-07 16:54:36.425
138.0, 4307.717598404598, -33933.457307035605, -4329.063514359416, -11037.403170752905, 1703.4711484278619, 5844.3553262180485, 4258.1414292027275, 19721.905257929, 0.02, 1.022, -0.056, 192.0, 0.0, 0.0, 0.0, 0.0, 0.0, 0.0, 0.0, 0.0, 0.0, 1.694076876425857E9, 0.0, 2023-09-07 16:54:36.425
139.0, 4628.934517971816, -33461.65668507298, -4052.5277319583574, -10753.60307140387, 2001.129329339186, 6164.253492862403, 4536.711220349219, 19576.842436414056, 0.02, 1.022, -0.056, 192.0, 0.0, 0.0, 0.0, 0.0, 0.0, 0.0, 0.0, 0.0, 0.0, 1.694076876425865E9, 0.0, 2023-09-07 16:54:36.425
140.0, 4396.655189592265, -33355.105919254536, -4216.187204860116, -9732.888309107819, 1731.142608063532, 6022.744598715854, 4256.107420457294, 19670.384486959516, 0.02, 1.022, -0.056, 192.0, 0.0, 0.0, 0.0, 0.0, 0.0, 0.0, 0.0, 0.0, 0.0, 1.694076876425872E9, 0.0, 2023-09-07 16:54:36.425
141.0, 4102.975619193986, -33792.46250301153, -4486.464498813689, -10068.85738001554, 1444.7273546132274, 5693.950437778287, 3982.879696235621, 19853.19940485947, 0.02, 1.022, -0.056, 192.0, 0.0, 0.0, 0.0, 0.0, 0.0, 0.0, 0.0, 0.0, 0.0, 1.694076876425879E9, 0.0, 2023-09-07 16:54:36.425
142.0, 4225.5078822979785, -33945.8625252083, -4395.314084924947, -10935.456864292248, 1625.664725978938, 5771.2204183602835, 4174.747070639976, 19731.449452811416, 0.02, 1.022, -0.056, 192.0, 0.0, 0.0, 0.0, 0.0, 0.0, 0.0, 0.0, 0.0, 0.0, 1.694076876425887E9, 0.0, 2023-09-07 16:54:36.425
143.0, 4616.395189332389, -33531.72940394037, -4066.944607132031, -10913.060416348031, 1991.8980588791442, 6135.151521581593, 4524.060132987515, 19598.054241902144, 0.02, 1.022, -0.056, 192.0, 0.0, 0.0, 0.0, 0.0, 0.0, 0.0, 0.0, 0.0, 0.0, 1.694076876425917E9, 0.0, 2023-09-07 16:54:36.425
144.0, 4500.166118164792, -33293.12453187997, -4157.8268000873095, -9801.21759190769, 1801.5058996088387, 6076.500544130868, 4327.8788719032855, 19634.420530130927, 0.02, 1.022, -0.056, 192.0, 0.0, 0.0, 0.0, 0.0, 0.0, 0.0, 0.0, 0.0, 0.0, 1.694076876425924E9, 0.0, 2023-09-07 16:54:36.425
145.0, 4159.905512321653, -33712.19738867252, -4441.090457569416, -9942.525320354143, 1488.9391051458247, 5751.640290217435, 4016.0496850072964, 19868.8903294671, 0.02, 1.022, -0.056, 192.0, 0.0, 0.0, 0.0, 0.0, 0.0, 0.0, 0.0, 0.0, 0.0, 1.694076876425931E9, 0.0, 2023-09-07 16:54:36.425
146.0, 4216.947164171596, -33916.537036482936, -4407.138157741804, -10783.442650251705, 1612.0972170945665, 5756.892950164432, 4137.374953910703, 19786.702965104934, 0.042, 0.988, -0.052000000000000005, 192.0, 1.0, 80.0, 30.0, 224.0, 254.0, 96.0, 0.0, 0.0, 0.0, 1.694076876425939E9, 0.0, 2023-09-07 16:54:36.425
147.0, 4595.4292530333105, -33612.441553168486, -4082.5908282507457, -11017.934801332332, 1987.9418001105548, 6097.377073452124, 4496.075748929471, 19637.303905165663, 0.042, 0.988, -0.052000000000000005, 192.0, 0.0, 0.0, 0.0, 0.0, 0.0, 0.0, 0.0, 0.0, 0.0, 1.694076876425946E9, 0.0, 2023-09-07 16:54:36.425
148.0, 4566.975482341705, -33256.91470586237, -4108.630610541179, -9907.701302492775, 1874.7078626999692, 6117.739512650909, 4365.653320032754, 19595.528494778693, 0.042, 0.988, -0.052000000000000005, 192.0, 0.0, 0.0, 0.0, 0.0, 0.0, 0.0, 0.0, 0.0, 0.0, 1.694076876425954E9, 0.0, 2023-09-07 16:54:36.425
149.0, 4198.082291851317, -33639.57657093723, -4404.67946585172, -9821.490624128655, 1521.7961694951262, 5816.505052626736, 4053.287691269838, 19854.83108220471, 0.042, 0.988, -0.052000000000000005, 192.0, 0.0, 0.0, 0.0, 0.0, 0.0, 0.0, 0.0, 0.0, 0.0, 1.694076876425961E9, 0.0, 2023-09-07 16:54:36.425
150.0, 4157.379765198203, -33926.64002497673, -4461.0058618790945, -10637.39635198073, 1541.1080767045114, 5719.811406113077, 4068.6656914550895, 19795.755421609334, 0.042, 0.988, -0.052000000000000005, 192.0, 0.0, 0.0, 0.0, 0.0, 0.0, 0.0, 0.0, 0.0, 0.0, 1.694076876425968E9, 0.0, 2023-09-07 16:54:36.425
151.0, 4510.269106658591, -33725.29551092333, -4155.055183774851, -11114.539040868169, 1919.9254417330555, 6036.982659933885, 4434.273175510547, 19631.537155096194, 0.042, 0.988, -0.052000000000000005, 192.0, 0.0, 0.0, 0.0, 0.0, 0.0, 0.0, 0.0, 0.0, 0.0, 1.694076876485253E9, 0.0, 2023-09-07 16:54:36.485
152.0, 4597.865593178939, -33250.11977554796, -4071.2361420674497, -10076.032289985693, 1922.42883711205, 6161.303062594302, 4437.02244007855, 19562.224395540285, 0.042, 0.988, -0.052000000000000005, 192.0, 0.0, 0.0, 0.0, 0.0, 0.0, 0.0, 0.0, 0.0, 0.0, 1.694076876485294E9, 0.0, 2023-09-07 16:54:36.485
153.0, 4233.576862046345, -33554.70699724043, -4355.840904216874, -9735.16818704226, 1552.507466376718, 5853.966576333831, 4088.067005642296, 19817.369558497616, 0.042, 0.988, -0.052000000000000005, 192.0, 0.0, 0.0, 0.0, 0.0, 0.0, 0.0, 0.0, 0.0, 0.0, 1.694076876485308E9, 0.0, 2023-09-07 16:54:36.485
154.0, 4130.781189296387, -33895.03465831693, -4472.3381963179345, -10486.991463540968, 1514.1965763803216, 5688.764833064656, 4021.995249032408, 19807.668901404013, 0.042, 0.988, -0.052000000000000005, 192.0, 0.0, 0.0, 0.0, 0.0, 0.0, 0.0, 0.0, 0.0, 0.0, 1.69407687648532E9, 0.0, 2023-09-07 16:54:36.485
155.0, 4465.677376470253, -33793.982421634486, -4185.274742278426, -11126.720741596311, 1884.9002581715893, 5978.376385972069, 4390.642570333787, 19659.521539154237, 0.042, 0.988, -0.052000000000000005, 192.0, 0.0, 0.0, 0.0, 0.0, 0.0, 0.0, 0.0, 0.0, 0.0, 1.694076876485328E9, 0.0, 2023-09-07 16:54:36.485
156.0, 4629.135683671914, -33266.19067981132, -4043.6317376651455, -10262.758763165328, 1971.4462127025383, 6169.439097576034, 4475.512144030588, 19553.998953580733, 0.038, 1.0, -0.048, 192.0, 1.0, 48.0, 31.0, 64.0, 254.0, 128.0, 0.0, 0.0, 0.0, 1.694076876485336E9, 0.0, 2023-09-07 16:54:36.485
157.0, 4273.966464277085, -33481.99677252731, -4317.150034564738, -9685.81553528494, 1607.3139437811308, 5903.162765879962, 4123.6062793262345, 19776.510569633316, 0.038, 1.0, -0.048, 192.0, 0.0, 0.0, 0.0, 0.0, 0.0, 0.0, 0.0, 0.0, 0.0, 1.694076876485344E9, 0.0, 2023-09-07 16:54:36.485
158.0, 4101.388645337659, -33875.298067962896, -4491.448937827223, -10348.500054895885, 1472.220000293255, 5669.475277599726, 3993.385016129615, 19829.037169103285, 0.038, 1.0, -0.048, 192.0, 0.0, 0.0, 0.0, 0.0, 0.0, 0.0, 0.0, 0.0, 0.0, 1.694076876485373E9, 0.0, 2023-09-07 16:54:36.485
159.0, 4385.836945275896, -33857.4390241431, -4254.632205323244, -11113.801433301143, 1809.463120634928, 5920.820643999654, 4324.012020112517, 19682.61089117657, 0.038, 1.0, -0.048, 192.0, 0.0, 0.0, 0.0, 0.0, 0.0, 0.0, 0.0, 0.0, 0.0, 1.694076876485382E9, 0.0, 2023-09-07 16:54:36.485
160.0, 4649.96750950426, -33328.73086079727, -4040.1001620412067, -10476.374384924697, 1997.8659746487112, 6188.41572861859, 4485.548077291021, 19549.416845967397, 0.038, 1.0, -0.048, 192.0, 0.0, 0.0, 0.0, 0.0, 0.0, 0.0, 0.0, 0.0, 0.0, 1.694076876485389E9, 0.0, 2023-09-07 16:54:36.485
161.0, 4346.922558179207, -33423.70342298787, -4273.765298576987, -9671.644529300276, 1657.694775783393, 5957.857484562098, 4155.390459941681, 19720.452394539403, 0.038, 1.0, -0.048, 192.0, 0.0, 0.0, 0.0, 0.0, 0.0, 0.0, 0.0, 0.0, 0.0, 1.694076876485397E9, 0.0, 2023-09-07 16:54:36.485
162.0, 4123.919203748608, -33826.414802839136, -4484.788117979541, -10206.49942237132, 1464.7768693896378, 5692.7434435777, 3978.5434578112913, 19850.15956761355, 0.038, 1.0, -0.048, 192.0, 0.0, 0.0, 0.0, 0.0, 0.0, 0.0, 0.0, 0.0, 0.0, 1.694076876485405E9, 0.0, 2023-09-07 16:54:36.485
163.0, 4348.218959357615, -33882.696495377604, -4308.119929804794, -11035.123292818464, 1734.0706865871773, 5868.584617207601, 4245.445638352113, 19717.345502060118, 0.038, 1.0, -0.048, 192.0, 0.0, 0.0, 0.0, 0.0, 0.0, 0.0, 0.0, 0.0, 0.0, 1.694076876485414E9, 0.0, 2023-09-07 16:54:36.485
164.0, 4652.7167740722625, -33397.238957552785, -4052.1701040470725, -10672.622701242293, 1996.0554833478313, 6161.057193405294, 4508.70448454672, 19554.222471025285, 0.038, 1.0, -0.048, 192.0, 0.0, 0.0, 0.0, 0.0, 0.0, 0.0, 0.0, 0.0, 0.0, 1.694076876485422E9, 0.0, 2023-09-07 16:54:36.485
165.0, 4408.076931008927, -33340.17495395839, -4226.200786376094, -9691.470526632134, 1714.3564479775964, 5998.001217603829, 4232.056943423384, 19653.195995473387, 0.038, 1.0, -0.048, 192.0, 0.0, 0.0, 0.0, 0.0, 0.0, 0.0, 0.0, 0.0, 0.0, 1.69407687648543E9, 0.0, 2023-09-07 16:54:36.485
166.0, 4080.3780055496704, -33797.044610624864, -4501.551926321021, -10092.684339604895, 1437.8877208099034, 5691.827022055033, 3953.330690065705, 19851.679486236513, 0.038, 1.0, -0.052000000000000005, 192.0, 1.0, 48.0, 31.0, 64.0, 254.0, 96.0, 0.0, 0.0, 0.0, 1.694076876544994E9, 0.0, 2023-09-07 16:54:36.544
167.0, 4249.245434909515, -33929.322234311374, -4377.4773928496115, -10955.461675579749, 1654.2079036483651, 5808.681942067378, 4183.441899233091, 19734.66810401298, 0.038, 1.0, -0.052000000000000005, 192.0, 0.0, 0.0, 0.0, 0.0, 0.0, 0.0, 0.0, 0.0, 0.0, 1.694076876545024E9, 0.0, 2023-09-07 16:54:36.545
168.0, 4632.376686617933, -33479.046342259215, -4043.7881998763323, -10842.76418003609, 2016.3955708021608, 6174.915274967584, 4535.9065575488285, 19600.468230303315, 0.038, 1.0, -0.052000000000000005, 192.0, 0.0, 0.0, 0.0, 0.0, 0.0, 0.0, 0.0, 0.0, 0.0, 1.694076876545035E9, 0.0, 2023-09-07 16:54:36.545
169.0, 4473.299321329513, -33282.172177096865, -4163.392384456681, -9747.998088359605, 1802.5340798537827, 6073.103078973661, 4295.737063376554, 19646.244602947787, 0.038, 1.0, -0.052000000000000005, 192.0, 0.0, 0.0, 0.0, 0.0, 0.0, 0.0, 0.0, 0.0, 0.0, 1.694076876545044E9, 0.0, 2023-09-07 16:54:36.545
170.0, 4130.334154407282, -33734.45972615, -4455.864960654373, -9957.59039611702, 1471.9070758708806, 5737.335173766038, 3994.2790859078273, 19858.049733406275, 0.038, 1.0, -0.052000000000000005, 192.0, 0.0, 0.0, 0.0, 0.0, 0.0, 0.0, 0.0, 0.0, 0.0, 1.694076876545053E9, 0.0, 2023-09-07 16:54:36.545
171.0, 4220.344629328803, -33923.443725519624, -4392.922448268228, -10811.80701396549, 1615.5170339962285, 5766.258331091205, 4162.8782943342085, 19765.0664764722, 0.038, 1.0, -0.052000000000000005, 192.0, 0.0, 0.0, 0.0, 0.0, 0.0, 0.0, 0.0, 0.0, 0.0, 1.694076876545062E9, 0.0, 2023-09-07 16:54:36.545
172.0, 4608.996761917682, -33585.932384244494, -4059.9932146064302, -10985.837696294511, 1991.96511411251, 6141.052382117794, 4526.518824877599, 19635.716931309336, 0.038, 1.0, -0.052000000000000005, 192.0, 0.0, 0.0, 0.0, 0.0, 0.0, 0.0, 0.0, 0.0, 0.0, 1.694076876545072E9, 0.0, 2023-09-07 16:54:36.545
173.0, 4537.761752338619, -33254.2995517611, -4102.148604649139, -9865.076525816505, 1859.3075107702628, 6134.123341336649, 4387.334512154403, 19628.49731785027, 0.038, 1.0, -0.052000000000000005, 192.0, 0.0, 0.0, 0.0, 0.0, 0.0, 0.0, 0.0, 0.0, 0.0, 1.69407687654508E9, 0.0, 2023-09-07 16:54:36.545
174.0, 4145.175712725605, -33664.56582123826, -4413.597811889388, -9857.611043168432, 1504.3394570755313, 5782.843325477043, 4055.165237804084, 19860.150797385075, 0.038, 1.0, -0.052000000000000005, 192.0, 0.0, 0.0, 0.0, 0.0, 0.0, 0.0, 0.0, 0.0, 0.0, 1.69407687654512E9, 0.0, 2023-09-07 16:54:36.545
175.0, 4171.483715949502, -33916.22411206056, -4430.093399297404, -10678.478858289584, 1561.6940333478492, 5732.283679519139, 4101.031017426374, 19794.123744264096, 0.038, 1.0, -0.052000000000000005, 192.0, 0.0, 0.0, 0.0, 0.0, 0.0, 0.0, 0.0, 0.0, 0.0, 1.694076876545127E9, 0.0, 2023-09-07 16:54:36.545
176.0, 4540.488665162166, -33683.117769136166, -4119.225337412994, -11091.404985356927, 1941.7854478103457, 6067.269273670826, 4464.917417158773, 19640.36609415604, 0.036000000000000004, 1.012, -0.052000000000000005, 192.0, 1.0, 32.0, 31.0, 160.0, 254.0, 96.0, 0.0, 0.0, 0.0, 1.694076876545134E9, 0.0, 2023-09-07 16:54:36.545
177.0, 4578.978369114205, -33243.503659189184, -4075.080642113762, -10027.707818473318, 1911.3200201177622, 6151.378888056146, 4413.888384567307, 19588.30888131963, 0.036000000000000004, 1.012, -0.052000000000000005, 192.0, 0.0, 0.0, 0.0, 0.0, 0.0, 0.0, 0.0, 0.0, 0.0, 1.694076876545141E9, 0.0, 2023-09-07 16:54:36.545
178.0, 4208.207632089571, -33583.18311967649, -4360.892398463774, -9759.151608842803, 1554.4967716332403, 5839.43794243788, 4072.577246734768, 19840.369503542126, 0.036000000000000004, 1.012, -0.052000000000000005, 192.0, 0.0, 0.0, 0.0, 0.0, 0.0, 0.0, 0.0, 0.0, 0.0, 1.694076876545148E9, 0.0, 2023-09-07 16:54:36.545
179.0, 4117.750122278943, -33912.8042951589, -4466.772611948563, -10539.607469988761, 1506.6416867544278, 5690.552972621081, 4046.716278399978, 19806.461907203426, 0.036000000000000004, 1.012, -0.052000000000000005, 192.0, 0.0, 0.0, 0.0, 0.0, 0.0, 0.0, 0.0, 0.0, 0.0, 1.694076876545155E9, 0.0, 2023-09-07 16:54:36.545
180.0, 4454.948539131706, -33781.398389506154, -4180.670282920633, -11147.574919173112, 1871.623321965137, 6005.37729327408, 4413.486053167111, 19669.22219624784, 0.036000000000000004, 1.012, -0.052000000000000005, 192.0, 0.0, 0.0, 0.0, 0.0, 0.0, 0.0, 0.0, 0.0, 0.0, 1.694076876545162E9, 0.0, 2023-09-07 16:54:36.545
181.0, 4591.361235542445, -33284.02737188666, -4066.1399443316395, -10234.886137829559, 1935.7951802963235, 6164.924045196062, 4454.1438763313145, 19567.141779320453, 0.036000000000000004, 1.012, -0.052000000000000005, 192.0, 0.0, 0.0, 0.0, 0.0, 0.0, 0.0, 0.0, 0.0, 0.0, 1.69407687660534E9, 0.0, 2023-09-07 16:54:36.605
182.0, 4240.8858824832305, -33522.386374758054, -4335.165540595715, -9715.521003666045, 1584.5598679256284, 5880.721614446833, 4116.341962378259, 19797.074174532198, 0.036000000000000004, 1.012, -0.052000000000000005, 192.0, 0.0, 0.0, 0.0, 0.0, 0.0, 0.0, 0.0, 0.0, 0.0, 1.694076876605418E9, 0.0, 2023-09-07 16:54:36.605
183.0, 4078.411052037603, -33910.77028641347, -4508.503318846621, -10419.980933663957, 1462.1170117994561, 5663.887341485899, 3989.9875509724084, 19831.00412261535, 0.036000000000000004, 1.012, -0.052000000000000005, 192.0, 0.0, 0.0, 0.0, 0.0, 0.0, 0.0, 0.0, 0.0, 0.0, 1.694076876605426E9, 0.0, 2023-09-07 16:54:36.605
184.0, 4399.158584971259, -33851.40405314017, -4240.863530738775, -11140.824692347609, 1816.5709753717156, 5941.272490176259, 4361.473543819612, 19692.71387967037, 0.036000000000000004, 1.012, -0.052000000000000005, 192.0, 0.0, 0.0, 0.0, 0.0, 0.0, 0.0, 0.0, 0.0, 0.0, 1.694076876605434E9, 0.0, 2023-09-07 16:54:36.605
185.0, 4633.538977329609, -33312.861122234004, -4045.79985687731, -10424.54068953284, 1977.0565005608203, 6186.225257661969, 4514.962972994205, 19570.02515435519, 0.036000000000000004, 1.012, -0.052000000000000005, 192.0, 0.0, 0.0, 0.0, 0.0, 0.0, 0.0, 0.0, 0.0, 0.0, 1.694076876605441E9, 0.0, 2023-09-07 16:54:36.605
186.0, 4312.724389162587, -33438.81320223966, -4286.03640628295, -9678.461811359146, 1641.9814994313122, 5940.691344820421, 4162.587721656289, 19745.10636867361, 0.032, 1.02, -0.044, 192.0, 1.0, 0.0, 31.0, 224.0, 254.0, 160.0, 0.0, 0.0, 0.0, 1.694076876605449E9, 0.0, 2023-09-07 16:54:36.605
187.0, 4067.6822146990557, -33867.519660892445, -4507.65395255732, -10272.571178981207, 1441.8439795784927, 5666.077812442519, 3944.680564961501, 19840.101282608663, 0.032, 1.02, -0.044, 192.0, 0.0, 0.0, 0.0, 0.0, 0.0, 0.0, 0.0, 0.0, 0.0, 1.694076876605457E9, 0.0, 2023-09-07 16:54:36.605
188.0, 4314.289011274459, -33913.8548271483, -4306.354141992824, -11093.52840108018, 1735.5459017212274, 5856.559378690646, 4252.397030877713, 19696.737193672325, 0.032, 1.02, -0.044, 192.0, 0.0, 0.0, 0.0, 0.0, 0.0, 0.0, 0.0, 0.0, 0.0, 1.694076876605464E9, 0.0, 2023-09-07 16:54:36.605
189.0, 4623.324230113534, -33384.4314079799, -4047.833865622743, -10632.322505989374, 1990.8475268897448, 6179.6985482810205, 4495.069920428982, 19572.05916310062, 0.032, 1.02, -0.044, 192.0, 0.0, 0.0, 0.0, 0.0, 0.0, 0.0, 0.0, 0.0, 0.0, 1.694076876605471E9, 0.0, 2023-09-07 16:54:36.605
190.0, 4352.644604759766, -33357.341093700066, -4233.733324257532, -9681.859276516352, 1697.3020669581972, 5999.901115882531, 4241.511731327979, 19718.865420683076, 0.032, 1.02, -0.044, 192.0, 0.0, 0.0, 0.0, 0.0, 0.0, 0.0, 0.0, 0.0, 0.0, 1.694076876605504E9, 0.0, 2023-09-07 16:54:36.605
191.0, 4074.6336072246563, -33823.57613129332, -4500.344932120434, -10132.068113335146, 1432.7468195851827, 5682.88632427291, 4001.4986993668917, 19870.7902277458, 0.032, 1.02, -0.044, 192.0, 0.0, 0.0, 0.0, 0.0, 0.0, 0.0, 0.0, 0.0, 0.0, 1.694076876605512E9, 0.0, 2023-09-07 16:54:36.605
192.0, 4269.205542708104, -33921.990862130035, -4354.2315786160925, -10987.93876027331, 1671.4410986234068, 5812.548793858146, 4227.899518954697, 19738.020865681276, 0.032, 1.02, -0.044, 192.0, 0.0, 0.0, 0.0, 0.0, 0.0, 0.0, 0.0, 0.0, 0.0, 1.694076876605519E9, 0.0, 2023-09-07 16:54:36.605
193.0, 4617.825700977529, -33464.4506531299, -4053.4218017365697, -10815.137423889331, 1993.3509222687392, 6156.117457880671, 4531.883243546873, 19600.468230303315, 0.032, 1.02, -0.044, 192.0, 0.0, 0.0, 0.0, 0.0, 0.0, 0.0, 0.0, 0.0, 0.0, 1.694076876605527E9, 0.0, 2023-09-07 16:54:36.605
194.0, 4426.248899251092, -33311.20709314431, -4190.482698736513, -9750.188559316226, 1751.594454240138, 6033.4287325654905, 4285.231743482559, 19660.348553699085, 0.032, 1.02, -0.044, 192.0, 0.0, 0.0, 0.0, 0.0, 0.0, 0.0, 0.0, 0.0, 0.0, 1.694076876605534E9, 0.0, 2023-09-07 16:54:36.605
195.0, 4088.961075420508, -33750.351816457725, -4463.2410363246245, -10002.27153328318, 1460.865314109959, 5724.527624193147, 3993.653237063079, 19874.41121034756, 0.022, 1.014, -0.042, 192.0, 0.0, 176.0, 31.0, 176.0, 254.0, 176.0, 0.0, 0.0, 0.0, 1.694076876605541E9, 0.0, 2023-09-07 16:54:36.605
196.0, 4202.977323887029, -33922.77317318597, -4393.660055835254, -10863.14897097933, 1620.5238247542175, 5767.912360180898, 4151.456552917547, 19761.601956081624, 0.022, 1.014, -0.042, 192.0, 0.0, 0.0, 0.0, 0.0, 0.0, 0.0, 0.0, 0.0, 0.0, 1.694076876665622E9, 0.0, 2023-09-07 16:54:36.665
197.0, 4583.6275319609085, -33556.80806121923, -4075.8853049141535, -10969.498571097682, 1981.6609599186136, 6111.972762581439, 4514.404179382823, 19607.35256759555, 0.022, 1.014, -0.042, 192.0, 0.0, 0.0, 0.0, 0.0, 0.0, 0.0, 0.0, 0.0, 0.0, 1.694076876665648E9, 0.0, 2023-09-07 16:54:36.665
198.0, 4476.629731253353, -33267.19650831181, -4147.075611004307, -9850.57024366501, 1817.554452127749, 6076.947579019974, 4337.221901085603, 19605.631483272493, 0.022, 1.014, -0.042, 192.0, 0.0, 0.0, 0.0, 0.0, 0.0, 0.0, 0.0, 0.0, 0.0, 1.694076876665656E9, 0.0, 2023-09-07 16:54:36.665
199.0, 4124.947383993553, -33692.21492912948, -4435.837797622418, -9897.933590165805, 1479.573724219051, 5758.345813554027, 4018.9107082975756, 19862.721247997433, 0.022, 1.014, -0.042, 192.0, 0.0, 0.0, 0.0, 0.0, 0.0, 0.0, 0.0, 0.0, 0.0, 1.694076876665664E9, 0.0, 2023-09-07 16:54:36.665
200.0, 4158.050317531863, -33918.347527783815, -4427.120617284849, -10727.339771668885, 1561.0011292697347, 5726.673391660856, 4119.068875201807, 19799.286997233274, 0.022, 1.014, -0.042, 192.0, 0.0, 0.0, 0.0, 0.0, 0.0, 0.0, 0.0, 0.0, 0.0, 1.694076876665671E9, 0.0, 2023-09-07 16:54:36.665
201.0, 4537.247662216147, -33644.53865820631, -4101.701569760033, -11071.400174069426, 1953.1177822491863, 6061.726041045909, 4501.663685043298, 19647.853928548568, 0.022, 1.014, -0.042, 192.0, 0.0, 0.0, 0.0, 0.0, 0.0, 0.0, 0.0, 0.0, 0.0, 1.694076876665678E9, 0.0, 2023-09-07 16:54:36.665
202.0, 4541.829769829485, -33251.37147323746, -4096.113633646207, -9979.53980917213, 1880.3405023027067, 6138.101951849694, 4400.745558827586, 19591.616939499014, 0.022, 1.014, -0.042, 192.0, 0.0, 0.0, 0.0, 0.0, 0.0, 0.0, 0.0, 0.0, 0.0, 1.694076876665686E9, 0.0, 2023-09-07 16:54:36.665
203.0, 4168.622692659223, -33618.25300672687, -4396.074044236427, -9795.450841838223, 1520.410361338897, 5804.882145509976, 4050.1584470460953, 19833.619276716625, 0.022, 1.014, -0.042, 192.0, 0.0, 0.0, 0.0, 0.0, 0.0, 0.0, 0.0, 0.0, 0.0, 1.694076876665693E9, 0.0, 2023-09-07 16:54:36.665
204.0, 4115.470244344502, -33913.07251609236, -4468.180771849247, -10591.32940665834, 1519.53864330514, 5695.716225590257, 4048.616176678679, 19801.946854823454, 0.022, 1.014, -0.042, 192.0, 0.0, 0.0, 0.0, 0.0, 0.0, 0.0, 0.0, 0.0, 0.0, 1.6940768766657E9, 0.0, 2023-09-07 16:54:36.665
205.0, 4459.687108956231, -33754.44218569305, -4168.801506614865, -11142.836349348587, 1903.4522060694942, 6023.14693011605, 4423.879614338829, 19653.352457684574, 0.024, 1.006, -0.038, 192.0, 0.0, 192.0, 31.0, 112.0, 254.0, 208.0, 0.0, 0.0, 0.0, 1.694076876665743E9, 0.0, 2023-09-07 16:54:36.665
206.0, 4576.653787690853, -33256.60178144, -4064.642377453134, -10155.559796757674, 1948.9827095249545, 6169.6626150205875, 4448.712402428675, 19564.72779091928, 0.024, 1.006, -0.038, 192.0, 0.0, 0.0, 0.0, 0.0, 0.0, 0.0, 0.0, 0.0, 0.0, 1.694076876665751E9, 0.0, 2023-09-07 16:54:36.665
207.0, 4225.641992764711, -33533.13756384105, -4341.804008698941, -9706.960285539662, 1575.3956526989523, 5874.574884721624, 4094.481956300969, 19809.479392704892, 0.024, 1.006, -0.038, 192.0, 0.0, 0.0, 0.0, 0.0, 0.0, 0.0, 0.0, 0.0, 0.0, 1.694076876665758E9, 0.0, 2023-09-07 16:54:36.665
208.0, 4091.4868225439577, -33898.09684730731, -4489.929019204262, -10435.962430949501, 1472.4211659933528, 5679.287693415606, 3981.0915566791964, 19828.63483770309, 0.024, 1.006, -0.038, 192.0, 0.0, 0.0, 0.0, 0.0, 0.0, 0.0, 0.0, 0.0, 0.0, 1.694076876665766E9, 0.0, 2023-09-07 16:54:36.665
209.0, 4398.040997748494, -33835.60136981027, -4233.912138213174, -11152.648765164467, 1831.747809856869, 5947.530978623746, 4346.587282012378, 19675.592443417605, 0.024, 1.006, -0.038, 192.0, 0.0, 0.0, 0.0, 0.0, 0.0, 0.0, 0.0, 0.0, 0.0, 1.694076876665773E9, 0.0, 2023-09-07 16:54:36.665
210.0, 4614.674105009331, -33299.89711044993, -4047.163313289084, -10361.888749824615, 1977.481183705471, 6176.256379634903, 4506.290496145546, 19560.30214551713, 0.024, 1.006, -0.038, 192.0, 0.0, 0.0, 0.0, 0.0, 0.0, 0.0, 0.0, 0.0, 0.0, 1.69407687666578E9, 0.0, 2023-09-07 16:54:36.665
211.0, 4271.574827620367, -33466.23879268632, -4302.666104157699, -9675.600788068867, 1621.5967084880722, 5915.143300908006, 4145.443933659069, 19757.62334556858, 0.024, 1.006, -0.038, 192.0, 0.0, 0.0, 0.0, 0.0, 0.0, 0.0, 0.0, 0.0, 0.0, 1.694076876725916E9, 0.0, 2023-09-07 16:54:36.725
212.0, 4053.064173825285, -33887.61387915777, -4512.839557270951, -10311.686731777994, 1438.3571074434649, 5657.450039082771, 3963.321919837227, 19834.334532539193, 0.024, 1.006, -0.038, 192.0, 0.0, 0.0, 0.0, 0.0, 0.0, 0.0, 0.0, 0.0, 0.0, 1.694076876726002E9, 0.0, 2023-09-07 16:54:36.726
213.0, 4332.2821655609805, -33896.688687406626, -4287.556324905911, -11111.029816988686, 1763.8655619461015, 5877.21239056735, 4282.3260167033695, 19691.573940703147, 0.024, 1.006, -0.038, 192.0, 0.0, 0.0, 0.0, 0.0, 0.0, 0.0, 0.0, 0.0, 0.0, 1.694076876726024E9, 0.0, 2023-09-07 16:54:36.726
214.0, 4612.796558475085, -33375.87068985352, -4051.298386013316, -10577.605435562782, 1990.646361189647, 6166.712184752487, 4481.614170266887, 19562.604375196028, 0.024, 1.006, -0.038, 192.0, 0.0, 0.0, 0.0, 0.0, 0.0, 0.0, 0.0, 0.0, 0.0, 1.694076876726032E9, 0.0, 2023-09-07 16:54:36.726
215.0, 4335.545520251456, -33389.617012693525, -4254.006356478495, -9681.076965460416, 1684.3604069185744, 5962.640757875533, 4203.044379120395, 19709.76826068977, 0.028, 0.998, -0.042, 192.0, 0.0, 224.0, 31.0, 48.0, 254.0, 176.0, 0.0, 0.0, 0.0, 1.69407687672604E9, 0.0, 2023-09-07 16:54:36.726
216.0, 4077.2040578370165, -33822.302081859365, -4485.078690657459, -10162.265320094266, 1457.8031251195819, 5687.379024908427, 3990.412234117059, 19860.284907851805, 0.028, 0.998, -0.042, 192.0, 0.0, 0.0, 0.0, 0.0, 0.0, 0.0, 0.0, 0.0, 0.0, 1.694076876726048E9, 0.0, 2023-09-07 16:54:36.726
217.0, 4280.671987613677, -33913.51955098147, -4323.989668368062, -11010.268152984161, 1711.1377967760322, 5841.561358161135, 4223.786797974921, 19729.996589421822, 0.028, 0.998, -0.042, 192.0, 0.0, 0.0, 0.0, 0.0, 0.0, 0.0, 0.0, 0.0, 0.0, 1.694076876726056E9, 0.0, 2023-09-07 16:54:36.726
218.0, 4603.431177548311, -33454.59353382511, -4049.1973220345167, -10764.577777931427, 1991.8310036457783, 6159.447867804512, 4505.664647300798, 19584.57613999559, 0.028, 0.998, -0.042, 192.0, 0.0, 0.0, 0.0, 0.0, 0.0, 0.0, 0.0, 0.0, 0.0, 1.694076876726063E9, 0.0, 2023-09-07 16:54:36.726
219.0, 4393.995332002083, -33346.92518078389, -4218.802358961387, -9736.174015542749, 1739.1668843229872, 5998.269438537292, 4257.314414657881, 19652.74896058428, 0.028, 0.998, -0.042, 192.0, 0.0, 0.0, 0.0, 0.0, 0.0, 0.0, 0.0, 0.0, 0.0, 1.694076876726071E9, 0.0, 2023-09-07 16:54:36.726
220.0, 4095.7783574793766, -33777.15155805964, -4470.706518972697, -10042.057638413626, 1471.1024130704895, 5698.532545391625, 3993.675588807534, 19852.39474205908, 0.028, 0.998, -0.042, 192.0, 0.0, 0.0, 0.0, 0.0, 0.0, 0.0, 0.0, 0.0, 0.0, 1.694076876726078E9, 0.0, 2023-09-07 16:54:36.726
221.0, 4218.690600239111, -33936.56419951489, -4382.081852207405, -10904.432642988282, 1645.0660401661446, 5779.222342875283, 4164.979358313008, 19731.38239757805, 0.028, 0.998, -0.042, 192.0, 0.0, 0.0, 0.0, 0.0, 0.0, 0.0, 0.0, 0.0, 0.0, 1.694076876726179E9, 0.0, 2023-09-07 16:54:36.726
222.0, 4573.166915555825, -33556.58454377467, -4078.925142160075, -10943.235271362695, 1990.4004920006387, 6136.3808675266355, 4485.391615079834, 19605.74324199477, 0.028, 0.998, -0.042, 192.0, 0.0, 0.0, 0.0, 0.0, 0.0, 0.0, 0.0, 0.0, 0.0, 1.694076876726187E9, 0.0, 2023-09-07 16:54:36.726
223.0, 4464.783306692041, -33280.87577591846, -4159.950215810563, -9819.814243294508, 1803.9198880100118, 6074.44418364098, 4293.680702886665, 19623.40112011446, 0.028, 0.998, -0.042, 192.0, 0.0, 0.0, 0.0, 0.0, 0.0, 0.0, 0.0, 0.0, 0.0, 1.694076876726195E9, 0.0, 2023-09-07 16:54:36.726
224.0, 4116.833700756276, -33702.273214134366, -4449.829989651441, -9920.754721254674, 1466.0062153346796, 5751.305014050605, 3989.652274805579, 19861.31308809675, 0.028, 0.998, -0.042, 192.0, 0.0, 0.0, 0.0, 0.0, 0.0, 0.0, 0.0, 0.0, 0.0, 1.694076876726202E9, 0.0, 2023-09-07 16:54:36.726
225.0, 4145.667451103622, -33941.88391469525, -4448.824161150952, -10781.743917673102, 1553.5579983661173, 5723.6112026704795, 4079.0816043712625, 19767.72633406238, 0.032, 1.008, -0.052000000000000005, 192.0, 1.0, 0.0, 31.0, 128.0, 254.0, 96.0, 0.0, 0.0, 0.0, 1.69407687672621E9, 0.0, 2023-09-07 16:54:36.726
226.0, 4534.94543253725, -33621.516361417336, -4103.199136638539, -11053.13879884944, 1967.9369888230551, 6093.890201317096, 4475.132164374848, 19627.335027138597, 0.032, 1.008, -0.052000000000000005, 192.0, 0.0, 0.0, 0.0, 0.0, 0.0, 0.0, 0.0, 0.0, 0.0, 1.694076876786133E9, 0.0, 2023-09-07 16:54:36.786
227.0, 4526.98821151116, -33230.42788868283, -4099.309933103315, -9927.147320168891, 1888.074205884243, 6132.178739569037, 4375.443384104179, 19601.719927992814, 0.032, 1.008, -0.052000000000000005, 192.0, 0.0, 0.0, 0.0, 0.0, 0.0, 0.0, 0.0, 0.0, 0.0, 1.69407687678616E9, 0.0, 2023-09-07 16:54:36.786
228.0, 4158.25148323196, -33623.37155620713, -4404.388893173801, -9798.088347683948, 1508.049846655112, 5807.407892633426, 4030.8912433256205, 19855.70280023847, 0.032, 1.008, -0.052000000000000005, 192.0, 0.0, 0.0, 0.0, 0.0, 0.0, 0.0, 0.0, 0.0, 0.0, 1.694076876786171E9, 0.0, 2023-09-07 16:54:36.786
229.0, 4106.708360518022, -33922.59435923032, -4480.183658621748, -10625.415816952684, 1502.0819308855453, 5694.241010456206, 4021.905842054587, 19792.78263959678, 0.032, 1.008, -0.052000000000000005, 192.0, 0.0, 0.0, 0.0, 0.0, 0.0, 0.0, 0.0, 0.0, 0.0, 1.694076876786181E9, 0.0, 2023-09-07 16:54:36.786
230.0, 4486.643312769332, -33714.54432184032, -4158.184427998594, -11125.290229951172, 1915.1198166751644, 6033.652250010044, 4417.196442746692, 19643.875318035523, 0.032, 1.008, -0.052000000000000005, 192.0, 0.0, 0.0, 0.0, 0.0, 0.0, 0.0, 0.0, 0.0, 0.0, 1.694076876786192E9, 0.0, 2023-09-07 16:54:36.786
231.0, 4551.418668200811, -33252.734929649225, -4092.0456161553407, -10113.67262764843, 1913.845767241212, 6132.156387824582, 4404.2994861959805, 19566.001840353234, 0.032, 1.008, -0.052000000000000005, 192.0, 0.0, 0.0, 0.0, 0.0, 0.0, 0.0, 0.0, 0.0, 0.0, 1.694076876786212E9, 0.0, 2023-09-07 16:54:36.786
232.0, 4177.384576485703, -33566.93340145748, -4390.530811611511, -9746.567576714466, 1535.4977888462292, 5824.015238763719, 4019.3353914422264, 19804.96434032492, 0.032, 1.008, -0.052000000000000005, 192.0, 0.0, 0.0, 0.0, 0.0, 0.0, 0.0, 0.0, 0.0, 0.0, 1.694076876786223E9, 0.0, 2023-09-07 16:54:36.786
233.0, 4072.8901711571425, -33902.544844453914, -4510.827900269974, -10485.650358873649, 1468.219038035755, 5674.236199168707, 3942.7583149383445, 19821.370520755117, 0.032, 1.008, -0.052000000000000005, 192.0, 0.0, 0.0, 0.0, 0.0, 0.0, 0.0, 0.0, 0.0, 0.0, 1.694076876786234E9, 0.0, 2023-09-07 16:54:36.786
234.0, 4387.088642965394, -33811.12620963171, -4229.464141066568, -11156.336802999593, 1848.1539902870645, 5957.030470017251, 4365.250988632559, 19662.60607988907, 0.032, 1.008, -0.052000000000000005, 192.0, 0.0, 0.0, 0.0, 0.0, 0.0, 0.0, 0.0, 0.0, 0.0, 1.694076876786241E9, 0.0, 2023-09-07 16:54:36.786
235.0, 4581.52646798211, -33281.4569212743, -4070.096203100229, -10317.632295803107, 1957.3422619512394, 6156.653899747598, 4469.410117794289, 19551.49555820174, 0.032, 1.008, -0.056, 192.0, 1.0, 0.0, 31.0, 128.0, 254.0, 64.0, 0.0, 0.0, 0.0, 1.694076876786248E9, 0.0, 2023-09-07 16:54:36.786
236.0, 4251.525312843956, -33483.784912083735, -4333.153883594738, -9701.148831981282, 1595.9369058533796, 5887.02480638323, 4111.335171620271, 19768.687459073957, 0.032, 1.008, -0.056, 192.0, 0.0, 0.0, 0.0, 0.0, 0.0, 0.0, 0.0, 0.0, 0.0, 1.694076876786256E9, 0.0, 2023-09-07 16:54:36.786
237.0, 4059.032089594852, -33882.964716311064, -4519.075693973982, -10355.451447421485, 1445.28614822461, 5657.695908271779, 3963.5901407706906, 19838.69312270798, 0.032, 1.008, -0.056, 192.0, 0.0, 0.0, 0.0, 0.0, 0.0, 0.0, 0.0, 0.0, 0.0, 1.69407687678629E9, 0.0, 2023-09-07 16:54:36.786
238.0, 4335.701982462643, -33872.973486539544, -4283.041272525939, -11131.481663165292, 1778.8412307311573, 5886.600123238579, 4293.345426719836, 19694.256150037785, 0.032, 1.008, -0.056, 192.0, 0.0, 0.0, 0.0, 0.0, 0.0, 0.0, 0.0, 0.0, 0.0, 1.694076876786298E9, 0.0, 2023-09-07 16:54:36.786
239.0, 4601.218354847236, -33347.70749183983, -4063.345976274726, -10531.918469896134, 1985.7513291539346, 6146.282690320336, 4474.282798085546, 19553.171939035885, 0.032, 1.008, -0.056, 192.0, 0.0, 0.0, 0.0, 0.0, 0.0, 0.0, 0.0, 0.0, 0.0, 1.694076876786306E9, 0.0, 2023-09-07 16:54:36.786
240.0, 4307.427025726679, -33405.017364623236, -4284.471784171079, -9690.308235920458, 1661.9416072299014, 5929.515472592768, 4141.711192335033, 19702.503943741795, 0.032, 1.008, -0.056, 192.0, 0.0, 0.0, 0.0, 0.0, 0.0, 0.0, 0.0, 0.0, 0.0, 1.694076876786313E9, 0.0, 2023-09-07 16:54:36.786
241.0, 4045.151656288106, -33838.730614034015, -4518.5169003626, -10213.026131752269, 1436.4348574203084, 5664.1555624193625, 3924.876919374099, 19858.49676829538, 0.032, 1.008, -0.056, 192.0, 0.0, 0.0, 0.0, 0.0, 0.0, 0.0, 0.0, 0.0, 0.0, 1.694076876846535E9, 0.0, 2023-09-07 16:54:36.846
242.0, 4256.196827435116, -33915.91118763819, -4349.3588983248355, -11059.844322186033, 1708.2544217412976, 5827.7256283433, 4209.124053612239, 19726.219144608873, 0.032, 1.008, -0.056, 192.0, 0.0, 0.0, 0.0, 0.0, 0.0, 0.0, 0.0, 0.0, 0.0, 1.694076876846605E9, 0.0, 2023-09-07 16:54:36.846
243.0, 4589.103709352459, -33425.11158288855, -4066.966958876486, -10728.323248424918, 2001.129329339186, 6152.183550856537, 4468.8736759273625, 19565.375991508485, 0.032, 1.008, -0.056, 192.0, 0.0, 0.0, 0.0, 0.0, 0.0, 0.0, 0.0, 0.0, 0.0, 1.694076876846613E9, 0.0, 2023-09-07 16:54:36.846
244.0, 4375.5998463153655, -33324.2158084173, -4227.921870699152, -9713.084663520416, 1733.2883755312414, 6010.786415432265, 4208.11822511175, 19669.311603225662, 0.032, 1.008, -0.056, 192.0, 0.0, 0.0, 0.0, 0.0, 0.0, 0.0, 0.0, 0.0, 0.0, 1.694076876846621E9, 0.0, 2023-09-07 16:54:36.846
245.0, 4075.99706363643, -33761.84061310776, -4485.592780779932, -10062.218911912312, 1464.9780350897356, 5713.910545576876, 3983.17026891354, 19882.03315520682, 0.032, 1.016, -0.062, 192.0, 1.0, 0.0, 31.0, 192.0, 254.0, 16.0, 0.0, 0.0, 0.0, 1.694076876846628E9, 0.0, 2023-09-07 16:54:36.846
246.0, 4214.399065303692, -33921.365013285285, -4393.72711106862, -10937.535576526592, 1642.0709064091334, 5789.280627880172, 4163.8170676013315, 19753.264755399796, 0.032, 1.016, -0.062, 192.0, 0.0, 0.0, 0.0, 0.0, 0.0, 0.0, 0.0, 0.0, 0.0, 1.694076876846673E9, 0.0, 2023-09-07 16:54:36.846
247.0, 4563.957996840239, -33528.175476571974, -4101.075720915284, -10909.864116890922, 1978.9787505839768, 6114.610268427166, 4464.336271802935, 19579.167017837408, 0.032, 1.016, -0.062, 192.0, 0.0, 0.0, 0.0, 0.0, 0.0, 0.0, 0.0, 0.0, 0.0, 1.69407687684668E9, 0.0, 2023-09-07 16:54:36.846
248.0, 4427.791169618508, -33296.991383670735, -4197.188222073105, -9798.848306995429, 1780.4729080763948, 6045.8115989937305, 4263.0141094939845, 19615.376843855007, 0.032, 1.016, -0.062, 192.0, 0.0, 0.0, 0.0, 0.0, 0.0, 0.0, 0.0, 0.0, 0.0, 1.694076876846688E9, 0.0, 2023-09-07 16:54:36.846
249.0, 4093.543183033846, -33717.31593815279, -4470.818277694974, -9947.934442512327, 1472.443517737808, 5735.032944087141, 3955.588216255691, 19864.17411138703, 0.032, 1.016, -0.062, 192.0, 0.0, 0.0, 0.0, 0.0, 0.0, 0.0, 0.0, 0.0, 0.0, 1.694076876846695E9, 0.0, 2023-09-07 16:54:36.846
250.0, 4159.749050110466, -33928.629330233256, -4440.151684302293, -10806.487298785127, 1586.3033039931422, 5737.983374355242, 4088.6257992536785, 19770.229729441373, 0.032, 1.016, -0.062, 192.0, 0.0, 0.0, 0.0, 0.0, 0.0, 0.0, 0.0, 0.0, 0.0, 1.694076876846702E9, 0.0, 2023-09-07 16:54:36.846
251.0, 4556.4478107032555, -33590.469788368915, -4098.684084258567, -11019.074740299553, 1985.7513291539346, 6105.691922389498, 4505.351722878423, 19632.587687085594, 0.032, 1.016, -0.062, 192.0, 0.0, 0.0, 0.0, 0.0, 0.0, 0.0, 0.0, 0.0, 0.0, 1.69407687684671E9, 0.0, 2023-09-07 16:54:36.846
252.0, 4516.818167783996, -33245.604723167984, -4126.444950872058, -9897.19598259878, 1871.1986388204862, 6112.039817814805, 4358.8136862294305, 19607.754898995747, 0.032, 1.016, -0.062, 192.0, 0.0, 0.0, 0.0, 0.0, 0.0, 0.0, 0.0, 0.0, 0.0, 1.694076876846717E9, 0.0, 2023-09-07 16:54:36.846
253.0, 4148.05908776034, -33655.73688217841, -4427.746466129597, -9838.008563281128, 1507.379294321453, 5763.240845589739, 4007.5336703698244, 19844.817500688732, 0.032, 1.016, -0.062, 192.0, 0.0, 0.0, 0.0, 0.0, 0.0, 0.0, 0.0, 0.0, 0.0, 1.694076876846776E9, 0.0, 2023-09-07 16:54:36.846
254.0, 4116.2078519115275, -33938.75467047151, -4481.547115033522, -10678.657672245226, 1526.5794428085617, 5674.392661379893, 4025.973859545453, 19789.9216163065, 0.032, 1.016, -0.062, 192.0, 0.0, 0.0, 0.0, 0.0, 0.0, 0.0, 0.0, 0.0, 0.0, 1.694076876846783E9, 0.0, 2023-09-07 16:54:36.846
255.0, 4459.843571167418, -33712.24209216143, -4168.801506614865, -11133.001581788252, 1918.7407992769242, 6032.512311042823, 4396.1410994697935, 19638.108567966054, 0.038, 1.02, -0.062, 192.0, 1.0, 48.0, 31.0, 224.0, 254.0, 16.0, 0.0, 0.0, 0.0, 1.694076876846791E9, 0.0, 2023-09-07 16:54:36.846
0.0, 4520.170929452292, -33263.73198792124, -4114.531471077379, -10085.3306156791, 1886.263714583363, 6119.751169651887, 4356.220883872615, 19553.39545648044, 0.038, 1.02, -0.062, 192.0, 0.0, 0.0, 0.0, 0.0, 0.0, 0.0, 0.0, 0.0, 0.0, 1.694076876905805E9, 0.0, 2023-09-07 16:54:36.905
1.0, 4174.858829362253, -33584.59127957717, -4388.049767976972, -9762.54907400001, 1543.700879061327, 5830.072561511107, 4048.3032522563044, 19815.849639874654, 0.038, 1.02, -0.062, 192.0, 0.0, 0.0, 0.0, 0.0, 0.0, 0.0, 0.0, 0.0, 0.0, 1.694076876905848E9, 0.0, 2023-09-07 16:54:36.905
2.0, 4085.6977207300333, -33908.08807707883, -4489.213763381692, -10518.663885434138, 1490.7048929577938, 5681.142888205396, 4007.4666151364586, 19824.142137067574, 0.038, 1.02, -0.062, 192.0, 0.0, 0.0, 0.0, 0.0, 0.0, 0.0, 0.0, 0.0, 0.0, 1.694076876905855E9, 0.0, 2023-09-07 16:54:36.905
3.0, 4423.723152127642, -33766.95916258802, -4193.768405171443, -11143.797474360166, 1873.232647565919, 5989.239333777348, 4380.114898695338, 19679.459295208373, 0.038, 1.02, -0.062, 192.0, 0.0, 0.0, 0.0, 0.0, 0.0, 0.0, 0.0, 0.0, 0.0, 1.694076876905862E9, 0.0, 2023-09-07 16:54:36.905
4.0, 4579.559514470043, -33261.765034409174, -4068.285711799349, -10256.992013095858, 1955.8223433282785, 6154.351670068702, 4436.284832511525, 19559.408075738917, 0.038, 1.02, -0.062, 192.0, 0.0, 0.0, 0.0, 0.0, 0.0, 0.0, 0.0, 0.0, 0.0, 1.694076876905869E9, 0.0, 2023-09-07 16:54:36.905
5.0, 4228.055981165884, -33500.4593134474, -4343.927424422196, -9704.389834927302, 1595.4451674753627, 5876.988873122797, 4088.4693370424916, 19784.892473804055, 0.038, 1.02, -0.062, 192.0, 0.0, 0.0, 0.0, 0.0, 0.0, 0.0, 0.0, 0.0, 0.0, 1.694076876905876E9, 0.0, 2023-09-07 16:54:36.905
6.0, 4048.6608801675893, -33895.61580367277, -4515.745284050141, -10390.789555405327, 1455.5232471851407, 5656.757135004656, 3956.571693011724, 19843.252878576863, 0.038, 1.02, -0.062, 192.0, 0.0, 0.0, 0.0, 0.0, 0.0, 0.0, 0.0, 0.0, 0.0, 1.694076876905882E9, 0.0, 2023-09-07 16:54:36.905
7.0, 4345.983784912084, -33859.58479161082, -4263.41644089418, -11143.551605171157, 1798.1084344516319, 5930.789522026721, 4289.925609818174, 19704.873228654054, 0.038, 1.02, -0.062, 192.0, 0.0, 0.0, 0.0, 0.0, 0.0, 0.0, 0.0, 0.0, 0.0, 1.694076876905889E9, 0.0, 2023-09-07 16:54:36.905
8.0, 4603.565288015043, -33322.40531711642, -4048.7279354009556, -10466.561969108818, 1993.127404824186, 6172.456583077501, 4434.630803421832, 19562.067933329097, 0.038, 1.02, -0.062, 192.0, 0.0, 0.0, 0.0, 0.0, 0.0, 0.0, 0.0, 0.0, 0.0, 1.694076876905904E9, 0.0, 2023-09-07 16:54:36.905
9.0, 4304.364836736302, -33416.126181617525, -4273.966464277085, -9672.62800605631, 1660.1311159290215, 5954.527074638257, 4140.705363834544, 19746.7603977633, 0.032, 1.018, -0.056, 192.0, 1.0, 0.0, 31.0, 208.0, 254.0, 64.0, 0.0, 0.0, 0.0, 1.694076876905911E9, 0.0, 2023-09-07 16:54:36.905
10.0, 4063.904769886109, -33833.32149187583, -4493.862926228396, -10233.545033162241, 1460.507686198674, 5680.9417225052985, 3968.1051931506627, 19860.508425296357, 0.032, 1.018, -0.056, 192.0, 0.0, 0.0, 0.0, 0.0, 0.0, 0.0, 0.0, 0.0, 0.0, 1.694076876905919E9, 0.0, 2023-09-07 16:54:36.905
11.0, 4297.636961655255, -33886.09396053481, -4300.743854134543, -11060.336060564048, 1751.7285647068697, 5865.030689839207, 4264.221103694571, 19723.626342252057, 0.032, 1.018, -0.056, 192.0, 0.0, 0.0, 0.0, 0.0, 0.0, 0.0, 0.0, 0.0, 0.0, 1.694076876905926E9, 0.0, 2023-09-07 16:54:36.905
12.0, 4610.248459607179, -33397.171902319424, -4040.9495283305087, -10660.686869703159, 2012.8192916893115, 6165.751059740908, 4499.473214086677, 19585.514913262716, 0.032, 1.018, -0.056, 192.0, 0.0, 0.0, 0.0, 0.0, 0.0, 0.0, 0.0, 0.0, 0.0, 1.694076876905981E9, 0.0, 2023-09-07 16:54:36.905
13.0, 4370.973035213117, -33352.98250353128, -4223.049190407895, -9685.703776562665, 1720.4584742138952, 6000.459909493913, 4196.428262761625, 19706.974292632854, 0.032, 1.018, -0.056, 192.0, 0.0, 0.0, 0.0, 0.0, 0.0, 0.0, 0.0, 0.0, 0.0, 1.694076876905988E9, 0.0, 2023-09-07 16:54:36.905
14.0, 4069.0903745997402, -33799.503302514946, -4489.191411637236, -10098.80871758565, 1448.5271511706294, 5685.300312674083, 3932.2976985332607, 19870.611413790157, 0.032, 1.018, -0.056, 192.0, 0.0, 0.0, 0.0, 0.0, 0.0, 0.0, 0.0, 0.0, 0.0, 1.694076876905995E9, 0.0, 2023-09-07 16:54:36.905
15.0, 4226.2678416094595, -33926.103583109805, -4368.223770645114, -10967.710431541256, 1666.9036944989796, 5784.117374910996, 4184.380672500214, 19731.181231877952, 0.032, 1.018, -0.056, 192.0, 0.0, 0.0, 0.0, 0.0, 0.0, 0.0, 0.0, 0.0, 0.0, 1.694076876965526E9, 0.0, 2023-09-07 16:54:36.965
16.0, 4583.71693893873, -33490.42338018696, -4067.8833803991533, -10850.140255706341, 1997.351884526239, 6138.124303594149, 4503.183603666259, 19595.9755296678, 0.032, 1.018, -0.056, 192.0, 0.0, 0.0, 0.0, 0.0, 0.0, 0.0, 0.0, 0.0, 0.0, 1.69407687696555E9, 0.0, 2023-09-07 16:54:36.965
17.0, 4413.329590955924, -33304.0098314297, -4193.567239471346, -9763.197274589214, 1768.4476695594394, 6037.049715167251, 4270.926627031163, 19649.709123338358, 0.032, 1.018, -0.056, 192.0, 0.0, 0.0, 0.0, 0.0, 0.0, 0.0, 0.0, 0.0, 0.0, 1.694076876965558E9, 0.0, 2023-09-07 16:54:36.965
18.0, 4081.942627661542, -33739.82414481928, -4473.679300985254, -9975.717660870274, 1472.868200882459, 5719.5655369240685, 3979.258713633861, 19873.070105680243, 0.024, 1.016, -0.048, 192.0, 0.0, 192.0, 31.0, 192.0, 254.0, 128.0, 0.0, 0.0, 0.0, 1.694076876965565E9, 0.0, 2023-09-07 16:54:36.965
19.0, 4188.627503946723, -33919.688632451136, -4408.30044845348, -10833.264688642585, 1623.697772466871, 5761.89974092242, 4116.833700756276, 19777.605805111623, 0.024, 1.016, -0.048, 192.0, 0.0, 0.0, 0.0, 0.0, 0.0, 0.0, 0.0, 0.0, 0.0, 1.694076876965573E9, 0.0, 2023-09-07 16:54:36.965
20.0, 4558.705336893241, -33581.26086965333, -4095.2419156124492, -10989.905713785376, 1979.9845790844656, 6111.056341058772, 4453.585082719932, 19622.060015447143, 0.024, 1.016, -0.048, 192.0, 0.0, 0.0, 0.0, 0.0, 0.0, 0.0, 0.0, 0.0, 0.0, 1.69407687696558E9, 0.0, 2023-09-07 16:54:36.965
21.0, 4481.971798178172, -33259.88748787493, -4145.443933659069, -9861.343784492468, 1832.55247265726, 6094.784271095308, 4305.393016981247, 19621.858849747045, 0.024, 1.016, -0.048, 192.0, 0.0, 0.0, 0.0, 0.0, 0.0, 0.0, 0.0, 0.0, 0.0, 1.694076876965587E9, 0.0, 2023-09-07 16:54:36.965
22.0, 4129.060104973329, -33661.74950143689, -4428.3723149743455, -9856.202883267748, 1495.3540558044979, 5775.087270151052, 4011.266411693861, 19869.091495167195, 0.024, 1.016, -0.048, 192.0, 0.0, 0.0, 0.0, 0.0, 0.0, 0.0, 0.0, 0.0, 0.0, 1.694076876965593E9, 0.0, 2023-09-07 16:54:36.965
23.0, 4151.635366873189, -33908.69157417912, -4430.048695808494, -10689.185343883675, 1567.3937281839524, 5737.201063299306, 4095.8230609682873, 19808.58532292668, 0.024, 1.016, -0.048, 192.0, 0.0, 0.0, 0.0, 0.0, 0.0, 0.0, 0.0, 0.0, 0.0, 1.6940768769656E9, 0.0, 2023-09-07 16:54:36.965
24.0, 4520.103874218926, -33648.18199255252, -4106.216622140005, -11078.23980787275, 1970.7309568799685, 6084.368358179136, 4472.204085851203, 19667.009373546767, 0.024, 1.016, -0.048, 192.0, 0.0, 0.0, 0.0, 0.0, 0.0, 0.0, 0.0, 0.0, 0.0, 1.694076876965608E9, 0.0, 2023-09-07 16:54:36.965
25.0, 4556.4254589588, -33218.44735365479, -4074.3430345467373, -9992.481469211754, 1917.8020260098012, 6149.858969433185, 4401.818442561441, 19612.225247886807, 0.024, 1.016, -0.048, 192.0, 0.0, 0.0, 0.0, 0.0, 0.0, 0.0, 0.0, 0.0, 0.0, 1.694076876965615E9, 0.0, 2023-09-07 16:54:36.965
26.0, 4182.123146310228, -33584.01013422133, -4376.046881204472, -9758.79398093152, 1549.087649475056, 5828.306773699138, 4051.23133077995, 19861.156625885564, 0.024, 1.016, -0.048, 192.0, 0.0, 0.0, 0.0, 0.0, 0.0, 0.0, 0.0, 0.0, 0.0, 1.694076876965622E9, 0.0, 2023-09-07 16:54:36.965
27.0, 4100.673389515089, -33913.09486783682, -4475.936827175239, -10558.13706614221, 1516.3646955924864, 5690.150641220885, 4027.851406079699, 19832.05465460475, 0.024, 1.016, -0.048, 192.0, 0.0, 0.0, 0.0, 0.0, 0.0, 0.0, 0.0, 0.0, 0.0, 1.694076876965629E9, 0.0, 2023-09-07 16:54:36.965
28.0, 4443.1021145703935, -33765.528650942884, -4180.536172453902, -11146.680849394901, 1893.7291972314356, 5994.134365813061, 4402.690160595198, 19670.496245681792, 0.014, 1.004, -0.05, 192.0, 0.0, 112.0, 31.0, 96.0, 254.0, 112.0, 0.0, 0.0, 0.0, 1.694076876965661E9, 0.0, 2023-09-07 16:54:36.965
29.0, 4565.299101507557, -33267.57648796755, -4072.644301968134, -10204.510117114796, 1947.9321775355552, 6142.6617077185765, 4436.68716391172, 19565.353639764027, 0.014, 1.004, -0.05, 192.0, 0.0, 0.0, 0.0, 0.0, 0.0, 0.0, 0.0, 0.0, 0.0, 1.694076876965669E9, 0.0, 2023-09-07 16:54:36.965
30.0, 4223.9209084416525, -33519.59240670114, -4342.183988354682, -9707.049692517483, 1590.1701557839103, 5857.453448468858, 4083.99898815143, 19798.214113499416, 0.014, 1.004, -0.05, 192.0, 0.0, 0.0, 0.0, 0.0, 0.0, 0.0, 0.0, 0.0, 0.0, 1.694076877025859E9, 0.0, 2023-09-07 16:54:37.025
31.0, 4077.695796215033, -33890.54195768142, -4497.4615570857, -10417.455186540508, 1484.1111283434784, 5667.97771072122, 3976.352986854671, 19832.54639298277, 0.014, 1.004, -0.05, 192.0, 0.0, 0.0, 0.0, 0.0, 0.0, 0.0, 0.0, 0.0, 0.0, 1.694076877025882E9, 0.0, 2023-09-07 16:54:37.025
32.0, 4392.140137212293, -33835.869590743736, -4236.795513247909, -11146.099704039063, 1833.044211035277, 5938.500873863802, 4340.462904031623, 19687.7964958902, 0.014, 1.004, -0.05, 192.0, 0.0, 0.0, 0.0, 0.0, 0.0, 0.0, 0.0, 0.0, 0.0, 1.694076877025891E9, 0.0, 2023-09-07 16:54:37.025
33.0, 4606.538070027598, -33298.757171482706, -4052.058345324796, -10397.740947930926, 1988.8582216332225, 6161.7948009723195, 4480.943617933228, 19555.83179662607, 0.014, 1.004, -0.05, 192.0, 0.0, 0.0, 0.0, 0.0, 0.0, 0.0, 0.0, 0.0, 0.0, 1.694076877025898E9, 0.0, 2023-09-07 16:54:37.025
34.0, 4300.006246567517, -33415.43327753941, -4282.9742172925735, -9653.96429943613, 1655.7501740157813, 5924.687495790422, 4150.853055817253, 19748.57088906418, 0.014, 1.004, -0.05, 192.0, 0.0, 0.0, 0.0, 0.0, 0.0, 0.0, 0.0, 0.0, 0.0, 1.694076877025906E9, 0.0, 2023-09-07 16:54:37.025
35.0, 4081.897924172631, -33840.63051231272, -4493.862926228396, -10257.595510196152, 1468.5766659470398, 5675.577303836025, 3950.715535964434, 19849.824291446723, 0.014, 1.004, -0.05, 192.0, 0.0, 0.0, 0.0, 0.0, 0.0, 0.0, 0.0, 0.0, 0.0, 1.694076877025914E9, 0.0, 2023-09-07 16:54:37.025
36.0, 4335.925499907195, -33868.74900683749, -4287.668083628188, -11074.99880492673, 1775.108489407121, 5881.950960391875, 4267.707975829599, 19707.28721705523, 0.014, 1.004, -0.05, 192.0, 0.0, 0.0, 0.0, 0.0, 0.0, 0.0, 0.0, 0.0, 0.0, 1.694076877025921E9, 0.0, 2023-09-07 16:54:37.025
37.0, 4620.217337634246, -33364.51600367022, -4049.711412156989, -10590.23417118003, 2004.4373875185715, 6150.9989084004055, 4492.991208194639, 19555.720037903793, 0.014, 1.004, -0.05, 192.0, 0.0, 0.0, 0.0, 0.0, 0.0, 0.0, 0.0, 0.0, 0.0, 1.694076877025929E9, 0.0, 2023-09-07 16:54:37.025
38.0, 4345.872026189808, -33366.95234381585, -4259.326071658858, -9670.01285195504, 1693.7034361008928, 5958.75155434031, 4165.336986224293, 19683.817885377157, 0.03, 1.002, -0.044, 192.0, 0.0, 240.0, 31.0, 80.0, 254.0, 160.0, 0.0, 0.0, 0.0, 1.694076877025936E9, 0.0, 2023-09-07 16:54:37.025
39.0, 4091.084491143762, -33789.13209308769, -4488.096176158926, -10116.891278849993, 1458.9430640868027, 5679.712376560256, 3954.224759843917, 19854.920489182532, 0.03, 1.002, -0.044, 192.0, 0.0, 0.0, 0.0, 0.0, 0.0, 0.0, 0.0, 0.0, 0.0, 1.694076877025945E9, 0.0, 2023-09-07 16:54:37.025
40.0, 4262.857647282797, -33904.780018899444, -4354.097468149361, -10989.637492851913, 1697.883212314035, 5804.926848998886, 4195.377730772225, 19720.18417360594, 0.03, 1.002, -0.044, 192.0, 0.0, 0.0, 0.0, 0.0, 0.0, 0.0, 0.0, 0.0, 0.0, 1.694076877025956E9, 0.0, 2023-09-07 16:54:37.025
41.0, 4595.809232689051, -33454.66058905847, -4067.1234210876733, -10790.505801499583, 2011.2099660885294, 6148.02612638785, 4488.207934881203, 19572.64030845646, 0.03, 1.002, -0.044, 192.0, 0.0, 0.0, 0.0, 0.0, 0.0, 0.0, 0.0, 0.0, 0.0, 1.694076877025964E9, 0.0, 2023-09-07 16:54:37.025
42.0, 4417.3305532134245, -33298.06426740459, -4194.237791805004, -9712.25764897557, 1777.0307394302774, 6031.461779053424, 4269.809039808398, 19654.984135029812, 0.03, 1.002, -0.044, 192.0, 0.0, 0.0, 0.0, 0.0, 0.0, 0.0, 0.0, 0.0, 0.0, 1.694076877025971E9, 0.0, 2023-09-07 16:54:37.025
43.0, 4103.199136638539, -33742.528705898374, -4473.07580388496, -9988.301692998612, 1475.7515759171936, 5713.307048476583, 3975.615379287646, 19870.097323667684, 0.03, 1.002, -0.044, 192.0, 0.0, 0.0, 0.0, 0.0, 0.0, 0.0, 0.0, 0.0, 0.0, 1.694076877025979E9, 0.0, 2023-09-07 16:54:37.025
44.0, 4187.800489401876, -33926.9082459102, -4401.974904772628, -10864.758296580112, 1633.2196156048317, 5765.09604037953, 4130.736485807477, 19762.741895048846, 0.03, 1.002, -0.044, 192.0, 0.0, 0.0, 0.0, 0.0, 0.0, 0.0, 0.0, 0.0, 0.0, 1.69407687702601E9, 0.0, 2023-09-07 16:54:37.026
45.0, 4564.136810795881, -33545.5651337582, -4082.635531739656, -10941.156559128352, 1994.3120472803173, 6111.972762581439, 4487.291513358536, 19611.398233341963, 0.03, 1.002, -0.044, 192.0, 0.0, 0.0, 0.0, 0.0, 0.0, 0.0, 0.0, 0.0, 0.0, 1.694076877086178E9, 0.0, 2023-09-07 16:54:37.086
46.0, 4497.528612319066, -33234.00416779568, -4142.471151646513, -9799.764728518097, 1839.7944378607797, 6084.413061668046, 4332.23746207207, 19629.749015539768, 0.03, 1.002, -0.044, 192.0, 0.0, 0.0, 0.0, 0.0, 0.0, 0.0, 0.0, 0.0, 0.0, 1.694076877086203E9, 0.0, 2023-09-07 16:54:37.086
47.0, 4125.81910202731, -33685.844681959716, -4451.5510739745, -9874.307796276546, 1488.2685528121654, 5742.677240690857, 4002.8845075231206, 19877.51810282685, 0.03, 1.002, -0.044, 192.0, 0.0, 0.0, 0.0, 0.0, 0.0, 0.0, 0.0, 0.0, 0.0, 1.694076877086212E9, 0.0, 2023-09-07 16:54:37.086
48.0, 4138.0455062443625, -33940.98984491704, -4464.2915683140245, -10743.164806743242, 1555.92728327838, 5702.108824504474, 4053.913540114587, 19785.20539822643, 0.034, 1.006, -0.054, 192.0, 1.0, 16.0, 31.0, 112.0, 254.0, 80.0, 0.0, 0.0, 0.0, 1.69407687708622E9, 0.0, 2023-09-07 16:54:37.086
49.0, 4518.874528273885, -33653.7922804108, -4138.134913222184, -11076.563427038602, 1946.2110932124965, 6055.176979920505, 4436.106018555882, 19637.862698777044, 0.034, 1.006, -0.054, 192.0, 0.0, 0.0, 0.0, 0.0, 0.0, 0.0, 0.0, 0.0, 0.0, 1.694076877086229E9, 0.0, 2023-09-07 16:54:37.086
50.0, 4521.1767579527805, -33242.56488592206, -4121.326401391792, -9962.910111297382, 1878.5076592573714, 6092.437337927501, 4354.4774478051, 19596.087288390077, 0.034, 1.006, -0.054, 192.0, 0.0, 0.0, 0.0, 0.0, 0.0, 0.0, 0.0, 0.0, 0.0, 1.694076877086237E9, 0.0, 2023-09-07 16:54:37.086
51.0, 4165.672262391122, -33598.73993381738, -4399.7844338160085, -9778.821143963474, 1533.4190766118857, 5785.6596452784115, 4023.314001955271, 19858.899099695576, 0.034, 1.006, -0.054, 192.0, 0.0, 0.0, 0.0, 0.0, 0.0, 0.0, 0.0, 0.0, 0.0, 1.694076877086245E9, 0.0, 2023-09-07 16:54:37.086
52.0, 4116.520776333902, -33897.33688799583, -4472.204085851203, -10582.90279899869, 1529.9322044768578, 5684.875629529432, 4008.31598142576, 19817.615427686625, 0.034, 1.006, -0.054, 192.0, 0.0, 0.0, 0.0, 0.0, 0.0, 0.0, 0.0, 0.0, 0.0, 1.694076877086252E9, 0.0, 2023-09-07 16:54:37.086
53.0, 4471.421774795267, -33713.33732763974, -4166.074593791317, -11116.52834612469, 1907.1849473935304, 6023.012819649318, 4403.20425071767, 19669.490417181303, 0.034, 1.006, -0.054, 192.0, 0.0, 0.0, 0.0, 0.0, 0.0, 0.0, 0.0, 0.0, 0.0, 1.69407687708626E9, 0.0, 2023-09-07 16:54:37.086
54.0, 4577.480802235699, -33222.98475777922, -4065.871723398176, -10115.326656738122, 1944.6017676117144, 6154.2846148353365, 4432.261518509569, 19582.095096361052, 0.034, 1.006, -0.054, 192.0, 0.0, 0.0, 0.0, 0.0, 0.0, 0.0, 0.0, 0.0, 0.0, 1.694076877086268E9, 0.0, 2023-09-07 16:54:37.086
55.0, 4216.701294982588, -33513.512732209296, -4342.340450565869, -9694.86799178934, 1596.5627546981282, 5857.140524046484, 4081.1379648611505, 19829.953590625955, 0.034, 1.006, -0.054, 192.0, 0.0, 0.0, 0.0, 0.0, 0.0, 0.0, 0.0, 0.0, 0.0, 1.694076877086276E9, 0.0, 2023-09-07 16:54:37.086
56.0, 4097.164165635606, -33866.402073669684, -4469.991263150127, -10427.289954100843, 1518.7563322492042, 5695.358597678972, 4012.5628128722688, 19858.206195617462, 0.034, 1.006, -0.054, 192.0, 0.0, 0.0, 0.0, 0.0, 0.0, 0.0, 0.0, 0.0, 0.0, 1.694076877086284E9, 0.0, 2023-09-07 16:54:37.086
57.0, 4404.411244918257, -33799.32448855931, -4214.734341470521, -11131.928698054398, 1861.4309264935168, 5952.805990315198, 4355.706793750142, 19695.32903377164, 0.034, 1.006, -0.054, 192.0, 0.0, 0.0, 0.0, 0.0, 0.0, 0.0, 0.0, 0.0, 0.0, 1.694076877086291E9, 0.0, 2023-09-07 16:54:37.086
58.0, 4609.3990933178775, -33269.40933101289, -4042.6259091646566, -10329.881051764614, 1995.8990211366443, 6165.192266129526, 4464.135106102837, 19574.11552359051, 0.028, 1.002, -0.064, 192.0, 0.0, 224.0, 31.0, 80.0, 254.0, 0.0, 0.0, 0.0, 0.0, 1.694076877086299E9, 0.0, 2023-09-07 16:54:37.086
59.0, 4278.436813168146, -33427.54792303418, -4292.764281363998, -9648.063438899928, 1646.273034366731, 5919.993629454807, 4100.315761603804, 19787.23940697186, 0.028, 1.002, -0.064, 192.0, 0.0, 0.0, 0.0, 0.0, 0.0, 0.0, 0.0, 0.0, 0.0, 1.694076877086307E9, 0.0, 2023-09-07 16:54:37.086
60.0, 4074.477145013469, -33834.55083782087, -4491.694807016231, -10283.076498875202, 1476.4668317397634, 5682.1710684503405, 3937.7962276692665, 19866.319878854738, 0.028, 1.002, -0.064, 192.0, 0.0, 0.0, 0.0, 0.0, 0.0, 0.0, 0.0, 0.0, 0.0, 1.69407687714653E9, 0.0, 2023-09-07 16:54:37.146
61.0, 4343.659203488732, -33851.18053569562, -4271.977159020563, -11092.14259292395, 1796.2532396618415, 5896.010207654263, 4293.166612764194, 19711.355234546096, 0.028, 1.002, -0.064, 192.0, 0.0, 0.0, 0.0, 0.0, 0.0, 0.0, 0.0, 0.0, 0.0, 1.694076877146559E9, 0.0, 2023-09-07 16:54:37.146
62.0, 4628.621593549442, -33320.37130837099, -4022.576394388246, -10525.302353537363, 2029.9630796865322, 6188.259266407403, 4498.355626863912, 19585.44785802935, 0.028, 1.002, -0.064, 192.0, 0.0, 0.0, 0.0, 0.0, 0.0, 0.0, 0.0, 0.0, 0.0, 1.694076877146567E9, 0.0, 2023-09-07 16:54:37.146
63.0, 4349.269491347014, -33350.30029419664, -4227.519539298956, -9635.76997944951, 1702.8452995831133, 5993.262647779304, 4212.543870513901, 19758.964450235897, 0.028, 1.002, -0.064, 192.0, 0.0, 0.0, 0.0, 0.0, 0.0, 0.0, 0.0, 0.0, 0.0, 1.694076877146575E9, 0.0, 2023-09-07 16:54:37.146
64.0, 4077.2711130703824, -33794.36240129023, -4475.400385308312, -10144.808607674671, 1475.125727072445, 5692.676388344335, 3985.070167192241, 19891.979681489433, 0.028, 1.002, -0.064, 192.0, 0.0, 0.0, 0.0, 0.0, 0.0, 0.0, 0.0, 0.0, 0.0, 1.694076877146583E9, 0.0, 2023-09-07 16:54:37.146
65.0, 4276.849839311819, -33878.628477886734, -4317.395903753746, -11012.011589051675, 1746.5206082487832, 5827.211538220828, 4217.841233949809, 19732.61174352309, 0.028, 1.002, -0.064, 192.0, 0.0, 0.0, 0.0, 0.0, 0.0, 0.0, 0.0, 0.0, 0.0, 1.69407687714659E9, 0.0, 2023-09-07 16:54:37.146
66.0, 4608.370913072934, -33405.03971636769, -4035.2051300054945, -10730.178443214709, 2031.1700738871186, 6159.559626526789, 4488.74437674813, 19583.033869628176, 0.028, 1.002, -0.064, 192.0, 0.0, 0.0, 0.0, 0.0, 0.0, 0.0, 0.0, 0.0, 0.0, 1.694076877146598E9, 0.0, 2023-09-07 16:54:37.146
67.0, 4399.672675093731, -33294.912671436396, -4186.168812056639, -9688.095413219382, 1765.139611380054, 6020.6211829926, 4228.525367799445, 19690.970443602855, 0.028, 1.002, -0.064, 192.0, 0.0, 0.0, 0.0, 0.0, 0.0, 0.0, 0.0, 0.0, 0.0, 1.69407687714661E9, 0.0, 2023-09-07 16:54:37.146
68.0, 4085.0495201408294, -33749.70361586852, -4461.0058618790945, -10030.099455130035, 1481.5183259866628, 5696.1409087349075, 3927.425018242004, 19869.806750989766, 0.018000000000000002, 1.014, -0.074, 192.0, 0.0, 144.0, 31.0, 176.0, 253.0, 176.0, 0.0, 0.0, 0.0, 1.694076877146621E9, 0.0, 2023-09-07 16:54:37.146
69.0, 4226.31254509837, -33909.0044986015, -4366.592093299877, -10907.651294189847, 1664.5791130756277, 5772.740336983245, 4090.7939184658435, 19748.101502430618, 0.018000000000000002, 1.014, -0.074, 192.0, 0.0, 0.0, 0.0, 0.0, 0.0, 0.0, 0.0, 0.0, 0.0, 1.694076877146631E9, 0.0, 2023-09-07 16:54:37.146
70.0, 4573.636302189387, -33513.49038046484, -4061.7813541628548, -10913.261582048128, 1998.3353612822727, 6094.851326328675, 4446.745448916608, 19607.129050150998, 0.018000000000000002, 1.014, -0.074, 192.0, 0.0, 0.0, 0.0, 0.0, 0.0, 0.0, 0.0, 0.0, 0.0, 1.694076877146639E9, 0.0, 2023-09-07 16:54:37.146
71.0, 4432.3062219984795, -33263.53082222114, -4150.607186628245, -9789.661740024298, 1810.7371700688805, 6055.62401480961, 4297.212278510604, 19645.64110584749, 0.018000000000000002, 1.014, -0.074, 192.0, 0.0, 0.0, 0.0, 0.0, 0.0, 0.0, 0.0, 0.0, 0.0, 1.694076877146647E9, 0.0, 2023-09-07 16:54:37.146
72.0, 4100.047540670341, -33693.26546111888, -4433.289698754514, -9918.653657275874, 1496.1363668604336, 5732.015458585675, 3984.198449158484, 19879.149780172083, 0.018000000000000002, 1.014, -0.074, 192.0, 0.0, 0.0, 0.0, 0.0, 0.0, 0.0, 0.0, 0.0, 0.0, 1.694076877146654E9, 0.0, 2023-09-07 16:54:37.146
73.0, 4172.10956479425, -33898.02979207394, -4401.103186738871, -10774.457248980672, 1612.857176406047, 5729.154435295396, 4080.7803369498656, 19785.071287759696, 0.018000000000000002, 1.014, -0.074, 192.0, 0.0, 0.0, 0.0, 0.0, 0.0, 0.0, 0.0, 0.0, 0.0, 1.694076877146662E9, 0.0, 2023-09-07 16:54:37.146
74.0, 4550.61400540042, -33583.98778247688, -4075.438270025047, -11034.877423629454, 1995.5413932253593, 6076.500544130868, 4473.768707963074, 19625.949218982365, 0.018000000000000002, 1.014, -0.074, 192.0, 0.0, 0.0, 0.0, 0.0, 0.0, 0.0, 0.0, 0.0, 0.0, 1.69407687714667E9, 0.0, 2023-09-07 16:54:37.146
75.0, 4523.523691120588, -33204.8351412815, -4082.277903828371, -9902.985084412705, 1897.4172350665613, 6114.587916682711, 4372.0235672025165, 19619.780137512702, 0.018000000000000002, 1.014, -0.074, 192.0, 0.0, 0.0, 0.0, 0.0, 0.0, 0.0, 0.0, 0.0, 0.0, 1.694076877206716E9, 0.0, 2023-09-07 16:54:37.206
76.0, 4161.87246583372, -33593.46492212593, -4372.269436391525, -9794.020330193083, 1547.3889168964527, 5794.24271514925, 4024.811568833777, 19884.536550585814, 0.018000000000000002, 1.014, -0.074, 192.0, 0.0, 0.0, 0.0, 0.0, 0.0, 0.0, 0.0, 0.0, 0.0, 1.694076877206762E9, 0.0, 2023-09-07 16:54:37.206
77.0, 4122.57809908129, -33891.65954490418, -4437.313012756469, -10635.898785102223, 1557.7601263237152, 5689.927123776331, 4025.616231634168, 19805.746651380858, 0.018000000000000002, 1.014, -0.074, 192.0, 0.0, 0.0, 0.0, 0.0, 0.0, 0.0, 0.0, 0.0, 0.0, 1.69407687720677E9, 0.0, 2023-09-07 16:54:37.206
78.0, 4479.781327221552, -33692.48315006294, -4132.211700941527, -11132.711009110333, 1939.8855495316448, 6017.603697491133, 4407.1828612307145, 19643.428283146415, 0.01, 1.012, -0.074, 192.0, 0.0, 80.0, 31.0, 160.0, 253.0, 176.0, 0.0, 0.0, 0.0, 1.694076877206777E9, 0.0, 2023-09-07 16:54:37.206
79.0, 4558.884150848884, -33219.743754833195, -4057.154543060606, -10089.264522703234, 1941.0478402433207, 6133.497492491901, 4398.733901826608, 19578.988203881767, 0.01, 1.012, -0.074, 192.0, 0.0, 0.0, 0.0, 0.0, 0.0, 0.0, 0.0, 0.0, 0.0, 1.694076877206785E9, 0.0, 2023-09-07 16:54:37.206
80.0, 4183.486602722001, -33538.43492727696, -4349.582415769389, -9732.865957363363, 1569.606550885028, 5826.4515789093475, 4048.1467900451175, 19826.578477213203, 0.01, 1.012, -0.074, 192.0, 0.0, 0.0, 0.0, 0.0, 0.0, 0.0, 0.0, 0.0, 0.0, 1.694076877206792E9, 0.0, 2023-09-07 16:54:37.206
81.0, 4104.897869217142, -33861.931724778624, -4451.461666996678, -10490.053652531346, 1525.8194834970814, 5688.429556897826, 4015.22267046245, 19843.610506488145, 0.01, 1.012, -0.074, 192.0, 0.0, 0.0, 0.0, 0.0, 0.0, 0.0, 0.0, 0.0, 0.0, 1.694076877206799E9, 0.0, 2023-09-07 16:54:37.206
82.0, 4439.97287034665, -33755.76093861592, -4172.422489216625, -11148.089009295585, 1908.3025346162958, 5973.190781258439, 4374.929293981707, 19691.015147091766, 0.01, 1.012, -0.074, 192.0, 0.0, 0.0, 0.0, 0.0, 0.0, 0.0, 0.0, 0.0, 0.0, 1.694076877206806E9, 0.0, 2023-09-07 16:54:37.206
83.0, 4618.451549822277, -33234.9429410628, -4026.2420804789167, -10272.772344681305, 1995.9437246255548, 6163.404126573101, 4446.007841349583, 19587.526570263693, 0.01, 1.012, -0.074, 192.0, 0.0, 0.0, 0.0, 0.0, 0.0, 0.0, 0.0, 0.0, 0.0, 1.694076877206813E9, 0.0, 2023-09-07 16:54:37.206
84.0, 4274.011167765995, -33446.882181988025, -4293.412481953202, -9668.291767631981, 1633.3313743271083, 5888.812945939654, 4097.611200524712, 19809.948779338454, 0.01, 1.012, -0.074, 192.0, 0.0, 0.0, 0.0, 0.0, 0.0, 0.0, 0.0, 0.0, 0.0, 1.69407687720682E9, 0.0, 2023-09-07 16:54:37.206
85.0, 4084.2448573404386, -33850.97936999552, -4478.4402225542335, -10350.0423252633, 1484.96049463278, 5656.868893726933, 3962.092573892185, 19864.75525674287, 0.01, 1.012, -0.074, 192.0, 0.0, 0.0, 0.0, 0.0, 0.0, 0.0, 0.0, 0.0, 0.0, 1.694076877206827E9, 0.0, 2023-09-07 16:54:37.206
86.0, 4372.202381158159, -33831.64511104168, -4246.295004641414, -11138.857738835542, 1809.3066584237408, 5887.918876161441, 4288.048063283928, 19698.23476055083, 0.01, 1.012, -0.074, 192.0, 0.0, 0.0, 0.0, 0.0, 0.0, 0.0, 0.0, 0.0, 0.0, 1.694076877206834E9, 0.0, 2023-09-07 16:54:37.206
87.0, 4635.416523863855, -33302.71343025129, -4026.5326531568353, -10502.235353259488, 2013.0875126227752, 6152.630585745644, 4478.283760343046, 19572.86382590101, 0.01, 1.012, -0.074, 192.0, 0.0, 0.0, 0.0, 0.0, 0.0, 0.0, 0.0, 0.0, 0.0, 1.694076877206841E9, 0.0, 2023-09-07 16:54:37.206
88.0, 4345.7826192119865, -33363.912506569926, -4235.633222536233, -9655.730087248097, 1696.0056657797893, 5954.012984515784, 4172.713061894544, 19774.789485310255, 0.012, 1.002, -0.068, 192.0, 0.0, 96.0, 31.0, 80.0, 253.0, 224.0, 0.0, 0.0, 0.0, 1.694076877206848E9, 0.0, 2023-09-07 16:54:37.206
89.0, 4099.376988336681, -33790.71906694402, -4461.899931657306, -10198.475146111865, 1486.189840577822, 5677.656016070368, 3998.525917354336, 19895.019518735353, 0.012, 1.002, -0.068, 192.0, 0.0, 0.0, 0.0, 0.0, 0.0, 0.0, 0.0, 0.0, 0.0, 1.694076877206856E9, 0.0, 2023-09-07 16:54:37.206
90.0, 4306.532955948467, -33872.03471327242, -4294.775938364975, -11055.552787250614, 1756.2212653423865, 5831.771294089711, 4287.08693827235, 19732.030598167254, 0.012, 1.002, -0.068, 192.0, 0.0, 0.0, 0.0, 0.0, 0.0, 0.0, 0.0, 0.0, 0.0, 1.694076877266093E9, 0.0, 2023-09-07 16:54:37.266
91.0, 4623.301878369079, -33374.44017820837, -4024.386885689126, -10692.336939851873, 2040.6919170250794, 6160.207827115993, 4534.4983976481435, 19590.387593553973, 0.012, 1.002, -0.068, 192.0, 0.0, 0.0, 0.0, 0.0, 0.0, 0.0, 0.0, 0.0, 0.0, 1.694076877266221E9, 0.0, 2023-09-07 16:54:37.266
92.0, 4387.625084832321, -33314.895130979436, -4204.9666291435515, -9689.056538230961, 1744.1513233365208, 5997.017740847796, 4254.878074512252, 19709.18711533393, 0.012, 1.002, -0.068, 192.0, 0.0, 0.0, 0.0, 0.0, 0.0, 0.0, 0.0, 0.0, 0.0, 1.694076877266228E9, 0.0, 2023-09-07 16:54:37.266
93.0, 4113.078607687785, -33752.788156603354, -4455.708498443187, -10073.171266695414, 1481.3618637754755, 5699.4266151698375, 4009.679437837534, 19899.60162634869, 0.012, 1.002, -0.068, 192.0, 0.0, 0.0, 0.0, 0.0, 0.0, 0.0, 0.0, 0.0, 0.0, 1.694076877266235E9, 0.0, 2023-09-07 16:54:37.266
94.0, 4275.575789877867, -33883.61291690027, -4331.678668460688, -10943.995230674176, 1698.9337443034344, 5790.979360458775, 4218.601193261289, 19755.499929845326, 0.012, 1.002, -0.068, 192.0, 0.0, 0.0, 0.0, 0.0, 0.0, 0.0, 0.0, 0.0, 0.0, 1.694076877266242E9, 0.0, 2023-09-07 16:54:37.266
95.0, 4623.458340580266, -33467.17756595345, -4032.768789859866, -10870.48034316067, 2028.5996232747584, 6144.963937397473, 4529.044572001048, 19613.901628720956, 0.012, 1.002, -0.068, 192.0, 0.0, 0.0, 0.0, 0.0, 0.0, 0.0, 0.0, 0.0, 0.0, 1.694076877266249E9, 0.0, 2023-09-07 16:54:37.266
96.0, 4467.174943348759, -33259.932191363834, -4151.2553872174485, -9760.202140832203, 1808.9043270235452, 6047.622090294611, 4300.386226223258, 19650.044399505186, 0.012, 1.002, -0.068, 192.0, 0.0, 0.0, 0.0, 0.0, 0.0, 0.0, 0.0, 0.0, 0.0, 1.694076877266255E9, 0.0, 2023-09-07 16:54:37.266
97.0, 4134.513930620424, -33698.80869374379, -4432.373277231846, -9953.991765259716, 1491.3977970359085, 5724.326458493049, 3995.1061004526737, 19868.08566666671, 0.012, 1.002, -0.068, 192.0, 0.0, 0.0, 0.0, 0.0, 0.0, 0.0, 0.0, 0.0, 0.0, 1.694076877266262E9, 0.0, 2023-09-07 16:54:37.266
98.0, 4204.3184285543475, -33905.04823983291, -4384.540544097489, -10830.537775819037, 1625.731781212304, 5738.139836566429, 4128.76953229541, 19759.813816525202, 0.02, 1.006, -0.068, 192.0, 0.0, 160.0, 31.0, 112.0, 253.0, 224.0, 0.0, 0.0, 0.0, 1.694076877266269E9, 0.0, 2023-09-07 16:54:37.266
99.0, 4565.276749763101, -33571.180232903986, -4069.582112977757, -11028.015438081675, 1999.3411897827614, 6076.791116808787, 4492.052434927516, 19615.242733388273, 0.02, 1.006, -0.068, 192.0, 0.0, 0.0, 0.0, 0.0, 0.0, 0.0, 0.0, 0.0, 0.0, 1.694076877266276E9, 0.0, 2023-09-07 16:54:37.266
100.0, 4532.285574947068, -33224.12469674643, -4100.807499981821, -9879.202828312258, 1856.7147084134472, 6091.520916404834, 4377.276227149514, 19627.424434116416, 0.02, 1.006, -0.068, 192.0, 0.0, 0.0, 0.0, 0.0, 0.0, 0.0, 0.0, 0.0, 0.0, 1.694076877266283E9, 0.0, 2023-09-07 16:54:37.266
101.0, 4158.564407654334, -33631.77581212232, -4398.622143104332, -9842.300098216547, 1507.9827914217462, 5765.028985146164, 4043.2741097538606, 19871.214910890452, 0.02, 1.006, -0.068, 192.0, 0.0, 0.0, 0.0, 0.0, 0.0, 0.0, 0.0, 0.0, 0.0, 1.694076877266291E9, 0.0, 2023-09-07 16:54:37.266
102.0, 4147.880273804698, -33900.75670489749, -4428.1935010187035, -10685.899637448745, 1553.0662599881007, 5693.45869940027, 4078.2769415708713, 19783.8195900702, 0.02, 1.006, -0.068, 192.0, 0.0, 0.0, 0.0, 0.0, 0.0, 0.0, 0.0, 0.0, 0.0, 1.694076877266298E9, 0.0, 2023-09-07 16:54:37.266
103.0, 4508.659781057809, -33674.04296088731, -4112.1621861651165, -11117.802395558643, 1947.0828112462536, 6032.467607553913, 4460.759992690086, 19629.994884728778, 0.02, 1.006, -0.068, 192.0, 0.0, 0.0, 0.0, 0.0, 0.0, 0.0, 0.0, 0.0, 0.0, 1.694076877266305E9, 0.0, 2023-09-07 16:54:37.266
104.0, 4556.090182791971, -33231.634882883416, -4070.766755433888, -10045.298641359645, 1905.2179938814634, 6108.284724746314, 4411.988486288606, 19573.40026776794, 0.02, 1.006, -0.068, 192.0, 0.0, 0.0, 0.0, 0.0, 0.0, 0.0, 0.0, 0.0, 0.0, 1.694076877266311E9, 0.0, 2023-09-07 16:54:37.266
105.0, 4198.618733718245, -33555.13168038508, -4343.189816855171, -9753.094286095416, 1557.536608879162, 5810.62654383499, 4068.5986362217236, 19829.081872592196, 0.02, 1.006, -0.068, 192.0, 0.0, 0.0, 0.0, 0.0, 0.0, 0.0, 0.0, 0.0, 0.0, 1.694076877325805E9, 0.0, 2023-09-07 16:54:37.325
106.0, 4111.335171620271, -33879.7460651095, -4433.3567539878795, -10531.449083262574, 1523.1149224179892, 5679.332396904516, 4037.619118406668, 19816.00610208584, 0.02, 1.006, -0.068, 192.0, 0.0, 0.0, 0.0, 0.0, 0.0, 0.0, 0.0, 0.0, 0.0, 1.69407687732583E9, 0.0, 2023-09-07 16:54:37.325
107.0, 4458.12248684436, -33748.38486294566, -4140.481846389991, -11144.222157504817, 1894.5115082873713, 5978.689310394444, 4421.040942793005, 19673.60313816108, 0.018000000000000002, 1.014, -0.06, 192.0, 0.0, 144.0, 31.0, 176.0, 254.0, 32.0, 0.0, 0.0, 0.0, 1.694076877325867E9, 0.0, 2023-09-07 16:54:37.325
108.0, 4592.188250087292, -33242.542534177606, -4027.829054335243, -10217.340018432144, 1952.2684159598848, 6140.448885017501, 4471.555885261999, 19576.194235824853, 0.018000000000000002, 1.014, -0.06, 192.0, 0.0, 0.0, 0.0, 0.0, 0.0, 0.0, 0.0, 0.0, 0.0, 1.694076877325877E9, 0.0, 2023-09-07 16:54:37.325
109.0, 4237.466065581568, -33485.86362431808, -4304.18602278066, -9685.6367213293, 1585.8339173595807, 5846.63520415249, 4103.579116294279, 19786.85942731612, 0.018000000000000002, 1.014, -0.06, 192.0, 0.0, 0.0, 0.0, 0.0, 0.0, 0.0, 0.0, 0.0, 0.0, 1.694076877325886E9, 0.0, 2023-09-07 16:54:37.325
110.0, 4093.4090725671144, -33851.76168105146, -4451.394611763312, -10383.81581113527, 1493.4541575257967, 5655.840713481988, 4013.389827417115, 19831.808785415746, 0.018000000000000002, 1.014, -0.06, 192.0, 0.0, 0.0, 0.0, 0.0, 0.0, 0.0, 0.0, 0.0, 0.0, 1.694076877325895E9, 0.0, 2023-09-07 16:54:37.325
111.0, 4403.91950654024, -33811.64029975418, -4192.941390626596, -11130.118206753517, 1824.5505481422601, 5915.255059630283, 4402.868974550841, 19689.763449402268, 0.018000000000000002, 1.014, -0.06, 192.0, 0.0, 0.0, 0.0, 0.0, 0.0, 0.0, 0.0, 0.0, 0.0, 1.694076877325904E9, 0.0, 2023-09-07 16:54:37.325
112.0, 4631.370858117444, -33278.05945611709, -3989.36170212766, -10409.050930625312, 2003.5656694848144, 6173.149487155615, 4552.536255423576, 19585.470209773805, 0.018000000000000002, 1.014, -0.06, 192.0, 0.0, 0.0, 0.0, 0.0, 0.0, 0.0, 0.0, 0.0, 0.0, 1.694076877325913E9, 0.0, 2023-09-07 16:54:37.325
113.0, 4305.638886170254, -33401.731658188306, -4238.114266170772, -9644.800084209453, 1661.0922409405996, 5915.120949163551, 4201.613867475256, 19773.9177672765, 0.018000000000000002, 1.014, -0.06, 192.0, 0.0, 0.0, 0.0, 0.0, 0.0, 0.0, 0.0, 0.0, 0.0, 1.694076877325922E9, 0.0, 2023-09-07 16:54:37.325
114.0, 4084.7589474629103, -33816.06594515633, -4442.990355848116, -10233.187405250956, 1476.8691631399588, 5664.066155441542, 4018.2401559639165, 19870.544358556792, 0.018000000000000002, 1.014, -0.06, 192.0, 0.0, 0.0, 0.0, 0.0, 0.0, 0.0, 0.0, 0.0, 0.0, 1.694076877325931E9, 0.0, 2023-09-07 16:54:37.325
115.0, 4329.510549248523, -33868.167861481656, -4249.55835933189, -11074.037679915153, 1764.916093935501, 5864.896579372476, 4305.370665236791, 19713.322188058162, 0.018000000000000002, 1.014, -0.06, 192.0, 0.0, 0.0, 0.0, 0.0, 0.0, 0.0, 0.0, 0.0, 0.0, 1.694076877325939E9, 0.0, 2023-09-07 16:54:37.325
116.0, 4631.0579336950705, -33355.26238146572, -3989.8310887612215, -10623.314752973885, 2020.1730156151077, 6160.498399793912, 4546.166008253814, 19581.223378327297, 0.018000000000000002, 1.014, -0.06, 192.0, 0.0, 0.0, 0.0, 0.0, 0.0, 0.0, 0.0, 0.0, 0.0, 1.694076877325948E9, 0.0, 2023-09-07 16:54:37.325
117.0, 4391.58134360091, -33302.512264551195, -4160.933692566597, -9642.631964997288, 1744.240730314342, 6011.434616021468, 4259.817810036875, 19737.395016836526, 0.018000000000000002, 1.016, -0.056, 192.0, 0.0, 144.0, 31.0, 192.0, 254.0, 64.0, 0.0, 0.0, 0.0, 1.694076877325957E9, 0.0, 2023-09-07 16:54:37.325
118.0, 4117.884232745675, -33744.138031499155, -4416.056503779471, -10072.23249342829, 1497.7903959501264, 5709.149624007896, 4016.8543478076876, 19896.762954802867, 0.018000000000000002, 1.016, -0.056, 192.0, 0.0, 0.0, 0.0, 0.0, 0.0, 0.0, 0.0, 0.0, 0.0, 1.694076877325967E9, 0.0, 2023-09-07 16:54:37.325
119.0, 4281.230781225059, -33888.575004169346, -4304.141319291749, -10967.50926584116, 1710.3554857200963, 5782.418642332393, 4216.164853115661, 19738.33379010365, 0.018000000000000002, 1.016, -0.056, 192.0, 0.0, 0.0, 0.0, 0.0, 0.0, 0.0, 0.0, 0.0, 0.0, 1.694076877325976E9, 0.0, 2023-09-07 16:54:37.325
120.0, 4620.1949858897915, -33455.15232743649, -4016.072036751752, -10817.28319135704, 2022.095265638264, 6130.301193034791, 4505.284667645057, 19578.362355037018, 0.018000000000000002, 1.016, -0.056, 192.0, 0.0, 0.0, 0.0, 0.0, 0.0, 0.0, 0.0, 0.0, 0.0, 1.694076877386239E9, 0.0, 2023-09-07 16:54:37.386
121.0, 4435.681335411231, -33284.005020142205, -4144.929843536597, -9717.934992067218, 1784.5185738228054, 6030.411247064024, 4287.153993505716, 19659.387428687507, 0.018000000000000002, 1.016, -0.056, 192.0, 0.0, 0.0, 0.0, 0.0, 0.0, 0.0, 0.0, 0.0, 0.0, 1.694076877386264E9, 0.0, 2023-09-07 16:54:37.386
122.0, 4119.6723723021, -33709.49282759343, -4405.439425163201, -9958.484465895232, 1495.666980226872, 5731.099037063007, 4019.670667609056, 19878.94861447199, 0.018000000000000002, 1.016, -0.056, 192.0, 0.0, 0.0, 0.0, 0.0, 0.0, 0.0, 0.0, 0.0, 0.0, 1.694076877386271E9, 0.0, 2023-09-07 16:54:37.386
123.0, 4220.434036306624, -33895.5487484394, -4341.3793255542905, -10835.008124710099, 1648.7764297457254, 5766.370089813482, 4156.329233208804, 19755.43287461196, 0.018000000000000002, 1.016, -0.056, 192.0, 0.0, 0.0, 0.0, 0.0, 0.0, 0.0, 0.0, 0.0, 0.0, 1.694076877386304E9, 0.0, 2023-09-07 16:54:37.386
124.0, 4585.415671517333, -33538.07729936568, -4028.5890136467237, -10955.081695924007, 2012.3052015668395, 6112.218631770448, 4509.978533980672, 19605.519724550217, 0.018000000000000002, 1.016, -0.056, 192.0, 0.0, 0.0, 0.0, 0.0, 0.0, 0.0, 0.0, 0.0, 0.0, 1.694076877386311E9, 0.0, 2023-09-07 16:54:37.386
125.0, 4504.904687989318, -33226.248112469686, -4083.551953262324, -9804.391539620345, 1860.715670670947, 6100.081634531216, 4387.870954021329, 19642.10953022355, 0.018000000000000002, 1.016, -0.056, 192.0, 0.0, 0.0, 0.0, 0.0, 0.0, 0.0, 0.0, 0.0, 0.0, 1.694076877386318E9, 0.0, 2023-09-07 16:54:37.386
126.0, 4156.262177975438, -33636.84965811368, -4375.577494570911, -9833.113531245415, 1514.1518728914111, 5781.926903954376, 4060.8649326401874, 19894.7960012908, 0.018000000000000002, 1.016, -0.056, 192.0, 0.0, 0.0, 0.0, 0.0, 0.0, 0.0, 0.0, 0.0, 0.0, 1.694076877386325E9, 0.0, 2023-09-07 16:54:37.386
127.0, 4182.905457366163, -33883.32234422235, -4380.964264984639, -10687.620721771804, 1595.825147131103, 5742.878406390954, 4127.987221239474, 19802.662110646022, 0.018000000000000002, 1.016, -0.05, 192.0, 0.0, 144.0, 31.0, 192.0, 254.0, 112.0, 0.0, 0.0, 0.0, 1.694076877386332E9, 0.0, 2023-09-07 16:54:37.386
128.0, 4553.117400779414, -33623.57272190723, -4054.51703721488, -11050.858920915, 1996.7707391704012, 6088.570486136733, 4542.992060541161, 19661.22027173284, 0.018000000000000002, 1.016, -0.05, 192.0, 0.0, 0.0, 0.0, 0.0, 0.0, 0.0, 0.0, 0.0, 0.0, 1.694076877386339E9, 0.0, 2023-09-07 16:54:37.386
129.0, 4548.445886188256, -33218.134429232414, -4052.572435447268, -9950.817817547062, 1912.2587933848852, 6135.285632048325, 4448.511236728577, 19616.74030026678, 0.018000000000000002, 1.016, -0.05, 192.0, 0.0, 0.0, 0.0, 0.0, 0.0, 0.0, 0.0, 0.0, 0.0, 1.694076877386346E9, 0.0, 2023-09-07 16:54:37.386
130.0, 4176.78107938541, -33586.3794191336, -4345.514398278523, -9754.88242565184, 1554.9661582668018, 5804.368055387504, 4089.385758565159, 19868.756219000366, 0.018000000000000002, 1.016, -0.05, 192.0, 0.0, 0.0, 0.0, 0.0, 0.0, 0.0, 0.0, 0.0, 0.0, 1.694076877386353E9, 0.0, 2023-09-07 16:54:37.386
131.0, 4112.676276287589, -33902.56719619837, -4430.093399297404, -10574.632653550227, 1538.6940883033383, 5677.968940492742, 4072.107860101207, 19818.93418060949, 0.018000000000000002, 1.016, -0.05, 192.0, 0.0, 0.0, 0.0, 0.0, 0.0, 0.0, 0.0, 0.0, 0.0, 1.694076877386359E9, 0.0, 2023-09-07 16:54:37.386
132.0, 4472.4499550402115, -33736.15845872861, -4123.583927581779, -11146.457331950347, 1927.1450551921196, 6002.158642072516, 4445.73962041612, 19656.638164119504, 0.018000000000000002, 1.016, -0.05, 192.0, 0.0, 0.0, 0.0, 0.0, 0.0, 0.0, 0.0, 0.0, 0.0, 1.694076877386366E9, 0.0, 2023-09-07 16:54:37.386
133.0, 4571.021148088115, -33249.046891814105, -4043.6317376651455, -10160.499532282298, 1945.7864100678457, 6143.466370518968, 4446.790152405519, 19575.121352091, 0.018000000000000002, 1.016, -0.05, 192.0, 0.0, 0.0, 0.0, 0.0, 0.0, 0.0, 0.0, 0.0, 0.0, 1.694076877386373E9, 0.0, 2023-09-07 16:54:37.386
134.0, 4236.750809758998, -33497.218310501376, -4301.70497914612, -9683.379195139312, 1596.1604232979325, 5881.25805631376, 4135.609166098734, 19831.8311371602, 0.018000000000000002, 1.016, -0.05, 192.0, 0.0, 0.0, 0.0, 0.0, 0.0, 0.0, 0.0, 0.0, 0.0, 1.69407687738638E9, 0.0, 2023-09-07 16:54:37.386
135.0, 4111.022247197896, -33853.66157933016, -4434.317878999457, -10409.475613769962, 1514.1965763803216, 5695.760929079167, 4061.2225605514723, 19854.49580603788, 0.018000000000000002, 1.016, -0.05, 192.0, 0.0, 0.0, 0.0, 0.0, 0.0, 0.0, 0.0, 0.0, 0.0, 1.6940768774465E9, 0.0, 2023-09-07 16:54:37.446
136.0, 4419.521024170044, -33797.71516295853, -4171.081384549307, -11132.956878299341, 1878.619417979648, 5963.423068931469, 4408.591021131399, 19696.60308320559, 0.018000000000000002, 1.016, -0.05, 192.0, 0.0, 0.0, 0.0, 0.0, 0.0, 0.0, 0.0, 0.0, 0.0, 1.694076877446521E9, 0.0, 2023-09-07 16:54:37.446
137.0, 4603.431177548311, -33288.36361031099, -4013.6804000950337, -10361.307604468777, 2000.4364252610715, 6159.69373699352, 4499.65202804232, 19567.74527642075, 0.02, 1.006, -0.044, 192.0, 0.0, 160.0, 31.0, 112.0, 254.0, 160.0, 0.0, 0.0, 0.0, 1.694076877446529E9, 0.0, 2023-09-07 16:54:37.446
138.0, 4282.795403336931, -33435.63925452701, -4261.561246104389, -9653.092581402372, 1655.079621682122, 5913.869251474053, 4158.407945443148, 19778.410467912017, 0.02, 1.006, -0.044, 192.0, 0.0, 0.0, 0.0, 0.0, 0.0, 0.0, 0.0, 0.0, 0.0, 1.694076877446537E9, 0.0, 2023-09-07 16:54:37.446
139.0, 4081.674406728078, -33840.049366956875, -4453.1380478308265, -10275.02987087129, 1490.0566923685901, 5665.720184531234, 3988.2664666493497, 19858.474416550926, 0.02, 1.006, -0.044, 192.0, 0.0, 0.0, 0.0, 0.0, 0.0, 0.0, 0.0, 0.0, 0.0, 1.694076877446572E9, 0.0, 2023-09-07 16:54:37.446
140.0, 4331.1645783382155, -33871.34180919431, -4244.909196485186, -11098.19991567134, 1793.8616030051237, 5872.362062020548, 4318.468787487601, 19707.488382755328, 0.02, 1.006, -0.044, 192.0, 0.0, 0.0, 0.0, 0.0, 0.0, 0.0, 0.0, 0.0, 0.0, 1.694076877446583E9, 0.0, 2023-09-07 16:54:37.446
141.0, 4608.057988650559, -33354.9718087878, -4010.260583193372, -10572.889217482712, 2019.2342423479847, 6156.072754391761, 4524.149539965337, 19582.318613805608, 0.02, 1.006, -0.044, 192.0, 0.0, 0.0, 0.0, 0.0, 0.0, 0.0, 0.0, 0.0, 0.0, 1.694076877446593E9, 0.0, 2023-09-07 16:54:37.446
142.0, 4342.631023243788, -33361.29735246865, -4208.811129189865, -9650.38802032328, 1720.1679015359762, 5970.642682390533, 4225.060847408873, 19744.815795995688, 0.02, 1.006, -0.044, 192.0, 0.0, 0.0, 0.0, 0.0, 0.0, 0.0, 0.0, 0.0, 0.0, 1.694076877446604E9, 0.0, 2023-09-07 16:54:37.446
143.0, 4081.9873311504525, -33793.758904189934, -4448.824161150952, -10136.270241292745, 1486.0333783666347, 5681.768737050144, 4006.8854697806205, 19887.039945964807, 0.02, 1.006, -0.044, 192.0, 0.0, 0.0, 0.0, 0.0, 0.0, 0.0, 0.0, 0.0, 0.0, 1.694076877446615E9, 0.0, 2023-09-07 16:54:37.446
144.0, 4263.304682171904, -33902.50014096501, -4309.99747633904, -11018.314780988072, 1718.0891893016326, 5805.038607721163, 4246.406763363691, 19729.303685343708, 0.02, 1.006, -0.044, 192.0, 0.0, 0.0, 0.0, 0.0, 0.0, 0.0, 0.0, 0.0, 0.0, 1.694076877446628E9, 0.0, 2023-09-07 16:54:37.446
145.0, 4608.840299706495, -33428.30788234567, -4016.8543478076876, -10772.892626868801, 2032.0864954097863, 6145.008640886384, 4538.477008161189, 19590.566407509614, 0.02, 1.006, -0.044, 192.0, 0.0, 0.0, 0.0, 0.0, 0.0, 0.0, 0.0, 0.0, 0.0, 1.694076877446635E9, 0.0, 2023-09-07 16:54:37.446
146.0, 4407.719303097642, -33292.521034779675, -4162.6994803785665, -9696.790241812498, 1774.6614545180148, 6021.6270114930885, 4286.125813260772, 19693.250321537296, 0.02, 1.006, -0.044, 192.0, 0.0, 0.0, 0.0, 0.0, 0.0, 0.0, 0.0, 0.0, 0.0, 1.694076877446642E9, 0.0, 2023-09-07 16:54:37.446
147.0, 4089.8551451987205, -33740.47234540848, -4425.958326573173, -10002.048015838625, 1506.865204198981, 5719.543185179614, 4024.453940922492, 19890.996204733397, 0.016, 1.006, -0.038, 192.0, 0.0, 128.0, 31.0, 112.0, 254.0, 208.0, 0.0, 0.0, 0.0, 1.694076877446649E9, 0.0, 2023-09-07 16:54:37.446
148.0, 4219.294097339403, -33905.29410902192, -4337.490122019068, -10879.175171753785, 1691.9376482889234, 5769.544037526136, 4195.847117405787, 19758.00332522432, 0.016, 1.006, -0.038, 192.0, 0.0, 0.0, 0.0, 0.0, 0.0, 0.0, 0.0, 0.0, 0.0, 1.694076877446656E9, 0.0, 2023-09-07 16:54:37.446
149.0, 4586.533258740099, -33527.92960738297, -4035.741571872422, -10927.656105477347, 2023.682239494591, 6106.8542131011745, 4507.095158945937, 19592.913340677424, 0.016, 1.006, -0.038, 192.0, 0.0, 0.0, 0.0, 0.0, 0.0, 0.0, 0.0, 0.0, 0.0, 1.694076877446663E9, 0.0, 2023-09-07 16:54:37.446
150.0, 4487.26916161408, -33245.135336534426, -4116.878404245187, -9785.571370788977, 1838.0510017932656, 6061.167247434527, 4319.496967732545, 19626.463309104838, 0.016, 1.006, -0.038, 192.0, 0.0, 0.0, 0.0, 0.0, 0.0, 0.0, 0.0, 0.0, 0.0, 1.694076877506774E9, 0.0, 2023-09-07 16:54:37.506
151.0, 4144.527512136401, -33659.17905082453, -4390.687273822698, -9876.252398044158, 1530.2674806436873, 5745.560615725591, 4023.22459497745, 19868.8903294671, 0.016, 1.006, -0.038, 192.0, 0.0, 0.0, 0.0, 0.0, 0.0, 0.0, 0.0, 0.0, 0.0, 1.694076877506807E9, 0.0, 2023-09-07 16:54:37.506
152.0, 4177.719852652533, -33904.71296366608, -4385.591076086888, -10745.399981188773, 1613.3489147840637, 5722.56067068108, 4112.586869309767, 19778.20930221192, 0.016, 1.006, -0.038, 192.0, 0.0, 0.0, 0.0, 0.0, 0.0, 0.0, 0.0, 0.0, 0.0, 1.694076877506815E9, 0.0, 2023-09-07 16:54:37.506
153.0, 4555.799610114052, -33623.93034981851, -4076.4664502699916, -11053.362316293993, 1992.5239077238928, 6065.794058536775, 4474.953350419206, 19625.63629455999, 0.016, 1.006, -0.038, 192.0, 0.0, 0.0, 0.0, 0.0, 0.0, 0.0, 0.0, 0.0, 0.0, 1.694076877506823E9, 0.0, 2023-09-07 16:54:37.506
