%OpenBCI Raw EXG Data
%Number of channels = 8
%Sample Rate = 250 Hz
%Board = OpenBCI_GUI$BoardCytonSerial
Sample Index, EXG Channel 0, EXG Channel 1, EXG Channel 2, EXG Channel 3, EXG Channel 4, EXG Channel 5, EXG Channel 6, EXG Channel 7, Accel Channel 0, Accel Channel 1, Accel Channel 2, Other, Other, Other, Other, Other, Other, Other, Analog Channel 0, Analog Channel 1, Analog Channel 2, Timestamp, Other, Timestamp (Formatted)
0.0, 0.0, 0.0, 0.0, 0.0, 0.0, 0.0, 0.0, 0.0, 0.032, 1.012, -0.058, 192.0, 1.0, 0.0, 31.0, 160.0, 254.0, 48.0, 0.0, 0.0, 0.0, 1.69407674555442E9, 0.0, 2023-09-07 16:52:25.554
1.0, 2787.508402765799, -34568.291553055235, -5790.487622080758, -12337.514738740294, 464.08927012554057, 3837.9956886763202, 3264.36051897532, 15948.77433166198, 0.032, 1.012, -0.058, 192.0, 0.0, 0.0, 0.0, 0.0, 0.0, 0.0, 0.0, 0.0, 0.0, 1.694076745570427E9, 0.0, 2023-09-07 16:52:25.570
2.0, 2414.614250017911, -34928.758135885975, -6089.419852426035, -12271.912368763968, 92.02213192249917, 3503.479481158195, 2919.2272328409235, 16284.899864780888, 0.032, 1.012, -0.058, 192.0, 0.0, 0.0, 0.0, 0.0, 0.0, 0.0, 0.0, 0.0, 0.0, 1.69407674563022E9, 0.0, 2023-09-07 16:52:25.630
3.0, 2351.8058480984987, -35201.58352870745, -6162.420649817068, -12915.150870698795, 66.7646606880022, 3399.096834551911, 2898.4177587530326, 16275.623890831936, 0.032, 1.012, -0.058, 192.0, 0.0, 0.0, 0.0, 0.0, 0.0, 0.0, 0.0, 0.0, 0.0, 1.694076745630257E9, 0.0, 2023-09-07 16:52:25.630
4.0, 2654.4037645344456, -34991.812406994395, -5926.341524880115, -13156.952042216308, 380.8960772628877, 3660.0534510676207, 3192.9243436961588, 16085.678766450736, 0.032, 1.012, -0.058, 192.0, 0.0, 0.0, 0.0, 0.0, 0.0, 0.0, 0.0, 0.0, 0.0, 1.694076745630264E9, 0.0, 2023-09-07 16:52:25.630
5.0, 2825.059333450715, -34556.44512849392, -5767.778249714166, -12431.45912068595, 505.685866556867, 3857.911092985999, 3291.6967024441606, 15916.945447557622, 0.032, 1.012, -0.058, 192.0, 0.0, 0.0, 0.0, 0.0, 0.0, 0.0, 0.0, 0.0, 0.0, 1.694076745630272E9, 0.0, 2023-09-07 16:52:25.630
6.0, 2453.4168783923246, -34860.33944610828, -6057.546264832767, -12199.22449579531, 124.7003823161581, 3541.7456676656807, 2925.820997455239, 16240.308134592551, 0.032, 1.012, -0.058, 192.0, 0.0, 0.0, 0.0, 0.0, 0.0, 0.0, 0.0, 0.0, 0.0, 1.694076745630278E9, 0.0, 2023-09-07 16:52:25.630
7.0, 2323.0391529845183, -35192.97810709216, -6196.775281044875, -12834.103445303852, 13.746322840013844, 3385.1493460117995, 2824.8805194950723, 16282.038841490608, 0.032, 1.012, -0.058, 192.0, 0.0, 0.0, 0.0, 0.0, 0.0, 0.0, 0.0, 0.0, 0.0, 1.694076745630286E9, 0.0, 2023-09-07 16:52:25.630
8.0, 2599.262010963203, -35064.94731485216, -5973.593112658634, -13192.714833344799, 315.74074217566755, 3620.513215126183, 3102.1986129520674, 16141.647534566824, 0.02, 1.018, -0.052000000000000005, 192.0, 0.0, 160.0, 31.0, 208.0, 254.0, 96.0, 0.0, 0.0, 0.0, 1.694076745630293E9, 0.0, 2023-09-07 16:52:25.630
9.0, 2858.3634326891224, -34572.426625779466, -5742.409019757392, -12549.856311065712, 558.1901142823833, 3874.876067027577, 3321.156301636255, 15921.661665637694, 0.02, 1.018, -0.052000000000000005, 192.0, 0.0, 0.0, 0.0, 0.0, 0.0, 0.0, 0.0, 0.0, 0.0, 1.6940767456303E9, 0.0, 2023-09-07 16:52:25.630
10.0, 2545.5507690371, -34763.04230249432, -5970.285054479248, -12130.202308917322, 221.215214874174, 3626.6822965958477, 2998.6206291461745, 16214.581276724492, 0.02, 1.018, -0.052000000000000005, 192.0, 0.0, 0.0, 0.0, 0.0, 0.0, 0.0, 0.0, 0.0, 0.0, 1.694076745630308E9, 0.0, 2023-09-07 16:52:25.630
11.0, 2358.0866882904397, -35136.07056570894, -6158.173818370559, -12703.390443729217, 58.248646050530205, 3425.829520920458, 2829.9096619975167, 16325.46828096727, 0.02, 1.018, -0.052000000000000005, 192.0, 0.0, 0.0, 0.0, 0.0, 0.0, 0.0, 0.0, 0.0, 0.0, 1.694076745630315E9, 0.0, 2023-09-07 16:52:25.630
12.0, 2548.165923138371, -35121.38546960181, -6010.026456120784, -13188.400946664924, 278.4133289353048, 3582.5823047855265, 3078.014025451425, 16193.145953791853, 0.02, 1.018, -0.052000000000000005, 192.0, 0.0, 0.0, 0.0, 0.0, 0.0, 0.0, 0.0, 0.0, 0.0, 1.694076745630321E9, 0.0, 2023-09-07 16:52:25.630
13.0, 2848.796886062251, -34631.25641718583, -5765.498371779725, -12696.170830270152, 541.5157129187243, 3869.4445931249375, 3325.000801682568, 15931.496433198028, 0.02, 1.018, -0.052000000000000005, 192.0, 0.0, 0.0, 0.0, 0.0, 0.0, 0.0, 0.0, 0.0, 0.0, 1.694076745630328E9, 0.0, 2023-09-07 16:52:25.630
14.0, 2584.912191022896, -34716.26010134937, -5943.060629732684, -12117.81944248908, 254.0946309679307, 3689.401291537439, 3049.560254759819, 16186.507485688626, 0.02, 1.018, -0.052000000000000005, 192.0, 0.0, 0.0, 0.0, 0.0, 0.0, 0.0, 0.0, 0.0, 0.0, 1.694076745630335E9, 0.0, 2023-09-07 16:52:25.630
15.0, 2325.989583252619, -35121.43017309072, -6185.487650094945, -12618.990256665977, 23.35757295579588, 3407.6575526782935, 2812.542356555743, 16322.830775121543, 0.02, 1.018, -0.052000000000000005, 192.0, 0.0, 0.0, 0.0, 0.0, 0.0, 0.0, 0.0, 0.0, 0.0, 1.694076745630342E9, 0.0, 2023-09-07 16:52:25.630
16.0, 2498.7685678921425, -35165.21724047867, -6051.310128129737, -13173.090001713039, 227.13842715483037, 3534.41429548434, 3028.236690549456, 16223.83489892899, 0.02, 1.018, -0.052000000000000005, 192.0, 0.0, 0.0, 0.0, 0.0, 0.0, 0.0, 0.0, 0.0, 0.0, 1.694076745630384E9, 0.0, 2023-09-07 16:52:25.630
17.0, 2847.120505228103, -34682.330153266215, -5768.091174136541, -12823.553421920948, 546.9695385658191, 3853.977185961865, 3335.3720111098305, 15959.391410278251, 0.01, 1.008, -0.044, 192.0, 0.0, 80.0, 31.0, 128.0, 254.0, 160.0, 0.0, 0.0, 0.0, 1.694076745690458E9, 0.0, 2023-09-07 16:52:25.690
18.0, 2647.9217586424065, -34652.55762965175, -5893.685626230911, -12130.984619973258, 311.67272468480166, 3740.5420828511815, 3096.498918115964, 16127.253011137607, 0.01, 1.008, -0.044, 192.0, 0.0, 0.0, 0.0, 0.0, 0.0, 0.0, 0.0, 0.0, 0.0, 1.694076745690517E9, 0.0, 2023-09-07 16:52:25.690
19.0, 2335.444371157214, -35086.29323080698, -6177.5304290688555, -12521.022560718366, 21.368267699273552, 3414.8324626484473, 2820.097246181637, 16321.221449520763, 0.01, 1.008, -0.044, 192.0, 0.0, 0.0, 0.0, 0.0, 0.0, 0.0, 0.0, 0.0, 0.0, 1.694076745690527E9, 0.0, 2023-09-07 16:52:25.690
20.0, 2446.241968422171, -35203.975165364165, -6092.817317583242, -13138.35539082949, 170.05207181597612, 3476.21035292272, 2990.350483697711, 16230.696884476769, 0.01, 1.008, -0.044, 192.0, 0.0, 0.0, 0.0, 0.0, 0.0, 0.0, 0.0, 0.0, 0.0, 1.694076745690536E9, 0.0, 2023-09-07 16:52:25.690
21.0, 2804.6298390185643, -34771.91594504308, -5800.992941974752, -12960.56961543198, 515.6323928394786, 3796.980237600832, 3315.769531222526, 15966.052230125933, 0.01, 1.008, -0.044, 192.0, 0.0, 0.0, 0.0, 0.0, 0.0, 0.0, 0.0, 0.0, 0.0, 1.694076745690544E9, 0.0, 2023-09-07 16:52:25.690
22.0, 2707.936192504906, -34610.35753612012, -5844.511788429236, -12173.989376305268, 373.8105742705553, 3776.3048739796727, 3193.304323351899, 16047.189062498697, 0.01, 1.008, -0.044, 192.0, 0.0, 0.0, 0.0, 0.0, 0.0, 0.0, 0.0, 0.0, 0.0, 1.694076745690553E9, 0.0, 2023-09-07 16:52:25.690
23.0, 2354.309243477493, -35035.55477089343, -6149.389582799624, -12407.810975052236, 35.58397717284885, 3456.898445713335, 2889.3205987597225, 16329.648057180413, 0.01, 1.008, -0.044, 192.0, 0.0, 0.0, 0.0, 0.0, 0.0, 0.0, 0.0, 0.0, 0.0, 1.694076745690561E9, 0.0, 2023-09-07 16:52:25.690
24.0, 2404.2877440795596, -35212.82645616847, -6122.746303408898, -13067.075677761517, 117.83839676837883, 3465.3697568618963, 2968.3340154092334, 16260.022373202131, 0.01, 1.008, -0.044, 192.0, 0.0, 0.0, 0.0, 0.0, 0.0, 0.0, 0.0, 0.0, 0.0, 1.69407674569057E9, 0.0, 2023-09-07 16:52:25.690
25.0, 2776.086661349137, -34841.8769051882, -5828.306773699138, -13057.084447989995, 501.6625525549117, 3781.1999060153853, 3295.6753129572053, 16036.571983882426, 0.01, 1.008, -0.044, 192.0, 0.0, 0.0, 0.0, 0.0, 0.0, 0.0, 0.0, 0.0, 0.0, 1.694076745690578E9, 0.0, 2023-09-07 16:52:25.690
26.0, 2794.1692226134805, -34547.63854117853, -5779.937598697853, -12216.591801237084, 470.3701103174818, 3862.3814418770603, 3257.9232165721914, 16044.350390952874, 0.01, 1.008, -0.044, 192.0, 0.0, 0.0, 0.0, 0.0, 0.0, 0.0, 0.0, 0.0, 0.0, 1.694076745690586E9, 0.0, 2023-09-07 16:52:25.690
27.0, 2404.3324475684703, -34952.182764075136, -6113.336218993213, -12287.849162560602, 79.48280328307192, 3493.532954875583, 2867.2370752378793, 16307.408071447382, 0.01, 1.008, -0.044, 192.0, 0.0, 0.0, 31.0, 160.0, 254.0, 160.0, 0.0, 0.0, 0.0, 1.694076745690595E9, 0.0, 2023-09-07 16:52:25.690
28.0, 2379.522011223079, -35204.01986885308, -6161.280710849847, -12981.021461608585, 91.66450401121426, 3413.379599258852, 2857.2681972108126, 16228.059378631042, 0.01, 1.008, -0.044, 192.0, 0.0, 0.0, 0.0, 0.0, 0.0, 0.0, 0.0, 0.0, 0.0, 1.694076745690604E9, 0.0, 2023-09-07 16:52:25.690
29.0, 2725.638774113509, -34936.715356912064, -5873.457297498858, -13144.658582765887, 449.6947466963228, 3727.555719322648, 3218.9864777310468, 16048.194890999186, 0.01, 1.008, -0.044, 192.0, 0.0, 0.0, 0.0, 0.0, 0.0, 0.0, 0.0, 0.0, 0.0, 1.694076745690612E9, 0.0, 2023-09-07 16:52:25.690
30.0, 2816.856243235617, -34566.41400652099, -5767.733546225256, -12336.888889895547, 493.88414548446485, 3871.255084425817, 3292.322551288909, 15987.554608291937, 0.01, 1.008, -0.044, 192.0, 0.0, 0.0, 0.0, 0.0, 0.0, 0.0, 0.0, 0.0, 0.0, 1.69407674569062E9, 0.0, 2023-09-07 16:52:25.690
31.0, 2419.6880960092662, -34930.233351020026, -6092.996131538884, -12233.512071789752, 91.99978017804386, 3510.341466705974, 2918.444921784988, 16273.723992553234, 0.01, 1.008, -0.044, 192.0, 0.0, 0.0, 0.0, 0.0, 0.0, 0.0, 0.0, 0.0, 0.0, 1.694076745690628E9, 0.0, 2023-09-07 16:52:25.690
32.0, 2361.7747261255654, -35212.53588349055, -6169.5508562983105, -12892.620312287845, 67.79284093294632, 3388.1221280243553, 2879.016444565826, 16261.609347058458, 0.01, 1.008, -0.044, 192.0, 0.0, 0.0, 0.0, 0.0, 0.0, 0.0, 0.0, 0.0, 0.0, 1.694076745749816E9, 0.0, 2023-09-07 16:52:25.749
33.0, 2678.4989450572666, -35019.707384074616, -5911.343504350603, -13192.379557177968, 401.12440599494056, 3670.0670325835986, 3185.369454070265, 16102.889609681322, 0.01, 1.008, -0.044, 192.0, 0.0, 0.0, 0.0, 0.0, 0.0, 0.0, 0.0, 0.0, 0.0, 1.694076745749876E9, 0.0, 2023-09-07 16:52:25.749
34.0, 2851.702612841441, -34579.24390783834, -5757.719964709278, -12467.266615303352, 523.2766894431936, 3868.0811367131637, 3308.6616764857386, 15946.337991516351, 0.01, 1.008, -0.044, 192.0, 0.0, 0.0, 0.0, 0.0, 0.0, 0.0, 0.0, 0.0, 0.0, 1.694076745749886E9, 0.0, 2023-09-07 16:52:25.749
35.0, 2511.643172698399, -34836.13250686318, -6017.4025317910355, -12155.97387027429, 175.08121431842022, 3582.4258425743396, 2985.7460243399173, 16245.158463139353, 0.01, 1.008, -0.044, 192.0, 0.0, 0.0, 0.0, 0.0, 0.0, 0.0, 0.0, 0.0, 0.0, 1.694076745749896E9, 0.0, 2023-09-07 16:52:25.749
36.0, 2350.509446920091, -35190.11708380188, -6182.291350637835, -12781.263921411506, 49.598520946326374, 3382.8471163329027, 2853.826028564695, 16277.12145771044, 0.01, 1.008, -0.044, 192.0, 0.0, 0.0, 0.0, 0.0, 0.0, 0.0, 0.0, 0.0, 0.0, 1.694076745749906E9, 0.0, 2023-09-07 16:52:25.749
37.0, 2597.1162434954936, -35113.24943462008, -5984.433708719458, -13234.423188498402, 325.48610275818146, 3594.8087090025797, 3113.2180229685337, 16114.490165053627, 0.01, 1.016, -0.038, 192.0, 0.0, 80.0, 31.0, 192.0, 254.0, 208.0, 0.0, 0.0, 0.0, 1.694076745749916E9, 0.0, 2023-09-07 16:52:25.749
38.0, 2848.2380924508684, -34628.641263084566, -5771.622749760479, -12619.191422366075, 532.9996982812522, 3840.1638078884853, 3291.27201929951, 15893.632578090737, 0.01, 1.016, -0.038, 192.0, 0.0, 0.0, 0.0, 0.0, 0.0, 0.0, 0.0, 0.0, 0.0, 1.694076745749927E9, 0.0, 2023-09-07 16:52:25.749
39.0, 2544.7684579811644, -34786.5116341724, -5991.809784389709, -12135.790245031149, 209.59230775741432, 3614.5229476121604, 2992.8985825656155, 16171.978851792677, 0.01, 1.016, -0.038, 192.0, 0.0, 0.0, 0.0, 0.0, 0.0, 0.0, 0.0, 0.0, 0.0, 1.69407674574994E9, 0.0, 2023-09-07 16:52:25.749
40.0, 2337.210158969183, -35163.18323173323, -6191.343807142235, -12682.089231263308, 24.542215411927156, 3372.8335348169253, 2828.859130008117, 16273.209902430763, 0.01, 1.016, -0.038, 192.0, 0.0, 0.0, 0.0, 0.0, 0.0, 0.0, 0.0, 0.0, 0.0, 1.694076745749949E9, 0.0, 2023-09-07 16:52:25.749
41.0, 2550.1775801393487, -35154.846031051406, -6020.375313803592, -13221.079197058583, 261.3142444269949, 3559.917635907845, 3063.284225855378, 16166.457970912215, 0.01, 1.016, -0.038, 192.0, 0.0, 0.0, 0.0, 0.0, 0.0, 0.0, 0.0, 0.0, 0.0, 1.694076745749958E9, 0.0, 2023-09-07 16:52:25.749
42.0, 2861.313862957223, -34665.879269347104, -5762.346775811527, -12751.826673963866, 561.3417102505816, 3852.367860361083, 3317.065932400934, 15936.816148378392, 0.01, 1.016, -0.038, 192.0, 0.0, 0.0, 0.0, 0.0, 0.0, 0.0, 0.0, 0.0, 0.0, 1.694076745749969E9, 0.0, 2023-09-07 16:52:25.749
43.0, 2629.526272955689, -34697.79756042929, -5916.774978253243, -12108.699930751316, 300.0051140791314, 3697.3808643079838, 3097.5718018498187, 16146.00612473561, 0.01, 1.016, -0.038, 192.0, 0.0, 0.0, 0.0, 0.0, 0.0, 0.0, 0.0, 0.0, 0.0, 1.694076745749978E9, 0.0, 2023-09-07 16:52:25.749
44.0, 2326.347211163904, -35134.99768197509, -6195.970618244483, -12574.622043922192, 21.524729910460703, 3375.292226707009, 2833.1059614546257, 16286.956225270776, 0.01, 1.016, -0.038, 192.0, 0.0, 0.0, 0.0, 0.0, 0.0, 0.0, 0.0, 0.0, 0.0, 1.694076745749988E9, 0.0, 2023-09-07 16:52:25.749
45.0, 2478.562590904545, -35215.531017247566, -6078.020462753829, -13205.880010828974, 212.54273802551486, 3486.7603763056254, 3012.7692833863834, 16177.902064073332, 0.01, 1.016, -0.038, 192.0, 0.0, 0.0, 0.0, 0.0, 0.0, 0.0, 0.0, 0.0, 0.0, 1.694076745749998E9, 0.0, 2023-09-07 16:52:25.749
46.0, 2835.7881707892625, -34744.91503774107, -5786.106680167518, -12899.571704813447, 542.3874309524812, 3821.5671565016696, 3318.317630090431, 15952.149445074732, 0.01, 1.016, -0.038, 192.0, 0.0, 0.0, 0.0, 0.0, 0.0, 0.0, 0.0, 0.0, 0.0, 1.694076745750009E9, 0.0, 2023-09-07 16:52:25.750
47.0, 2665.132601872993, -34654.837507586184, -5892.076300630129, -12146.519082369696, 336.2596435856394, 3736.339954893584, 3124.9303370631146, 16076.738068668614, 0.006, 1.016, -0.03, 192.0, 0.0, 48.0, 31.0, 192.0, 255.0, 16.0, 0.0, 0.0, 0.0, 1.694076745810651E9, 0.0, 2023-09-07 16:52:25.810
48.0, 2343.535702650035, -35070.04351258797, -6177.84335349123, -12462.684507690014, 33.684078894147746, 3412.2620120360866, 2822.8018072607288, 16295.98633003072, 0.006, 1.016, -0.03, 192.0, 0.0, 0.0, 0.0, 0.0, 0.0, 0.0, 0.0, 0.0, 0.0, 1.694076745810736E9, 0.0, 2023-09-07 16:52:25.810
49.0, 2449.0582882235394, -35208.15494157731, -6104.2167072554485, -13124.564364500568, 179.1268800648308, 3479.1384314463658, 2948.284500632823, 16216.615285469925, 0.006, 1.016, -0.03, 192.0, 0.0, 0.0, 0.0, 0.0, 0.0, 0.0, 0.0, 0.0, 0.0, 1.694076745810747E9, 0.0, 2023-09-07 16:52:25.810
50.0, 2788.804803944207, -34822.58734972326, -5830.161968488928, -13022.14867140635, 503.8306717670765, 3783.3903769720055, 3250.4130304352084, 15986.794648980458, 0.006, 1.016, -0.03, 192.0, 0.0, 0.0, 0.0, 0.0, 0.0, 0.0, 0.0, 0.0, 0.0, 1.694076745810759E9, 0.0, 2023-09-07 16:52:25.810
51.0, 2714.798178052685, -34620.3711176361, -5860.3815269925035, -12203.158402819445, 388.5180221221474, 3772.527429166726, 3167.3762997837425, 16024.904373276757, 0.006, 1.016, -0.03, 192.0, 0.0, 0.0, 0.0, 0.0, 0.0, 0.0, 0.0, 0.0, 0.0, 1.694076745810771E9, 0.0, 2023-09-07 16:52:25.810
52.0, 2361.2829877475488, -35030.21270396861, -6162.375946328158, -12360.44762855144, 43.004756332010786, 3432.8479686794244, 2855.0777262541924, 16286.777411315134, 0.006, 1.016, -0.03, 192.0, 0.0, 0.0, 0.0, 0.0, 0.0, 0.0, 0.0, 0.0, 0.0, 1.694076745810779E9, 0.0, 2023-09-07 16:52:25.810
53.0, 2392.173098584783, -35240.184991381764, -6158.442039304023, -13060.638375358389, 112.18340542118615, 3416.4417882492294, 2913.125206604625, 16218.939866893277, 0.006, 1.016, -0.03, 192.0, 0.0, 0.0, 0.0, 0.0, 0.0, 0.0, 0.0, 0.0, 0.0, 1.694076745810787E9, 0.0, 2023-09-07 16:52:25.810
54.0, 2739.027469042238, -34923.88545559472, -5877.413556267447, -13146.960812444784, 461.3400055575378, 3714.8375767275784, 3232.6657453376947, 16007.402957368251, 0.006, 1.016, -0.03, 192.0, 0.0, 0.0, 0.0, 0.0, 0.0, 0.0, 0.0, 0.0, 0.0, 1.694076745810795E9, 0.0, 2023-09-07 16:52:25.810
55.0, 2778.9476846394164, -34587.245832353336, -5820.081331739585, -12286.128078237543, 453.8074676760993, 3795.8626503780665, 3212.973858472569, 15966.991003393056, 0.006, 1.016, -0.03, 192.0, 0.0, 0.0, 0.0, 0.0, 0.0, 0.0, 0.0, 0.0, 0.0, 1.694076745810802E9, 0.0, 2023-09-07 16:52:25.810
56.0, 2400.107967866417, -34964.87855492575, -6129.675344190043, -12270.258339674276, 79.08047188287638, 3465.436812095262, 2845.2876621827677, 16253.987402199198, 0.006, 1.016, -0.03, 192.0, 0.0, 0.0, 0.0, 0.0, 0.0, 0.0, 0.0, 0.0, 0.0, 1.69407674581081E9, 0.0, 2023-09-07 16:52:25.810
57.0, 2372.32474950847, -35221.811857439505, -6175.6528825346095, -12956.27808049656, 94.90550695723378, 3384.6352558893273, 2841.934900514472, 16221.73383495019, 0.002, 1.01, -0.028, 192.0, 0.0, 16.0, 31.0, 144.0, 255.0, 32.0, 0.0, 0.0, 0.0, 1.694076745810818E9, 0.0, 2023-09-07 16:52:25.810
58.0, 2705.5669075926435, -34983.408151079195, -5903.341579835604, -13205.500031173235, 437.22247329026146, 3674.492677985749, 3172.696014964106, 16047.904318321267, 0.002, 1.01, -0.028, 192.0, 0.0, 0.0, 0.0, 0.0, 0.0, 0.0, 0.0, 0.0, 0.0, 1.694076745810826E9, 0.0, 2023-09-07 16:52:25.810
59.0, 2839.319746413201, -34551.12541331356, -5775.489601551247, -12370.103582156133, 508.6139450805122, 3829.882005439044, 3253.3187572143984, 15943.074636825877, 0.002, 1.01, -0.028, 192.0, 0.0, 0.0, 0.0, 0.0, 0.0, 0.0, 0.0, 0.0, 0.0, 1.694076745810834E9, 0.0, 2023-09-07 16:52:25.810
60.0, 2455.5402941155785, -34879.405484128656, -6082.602570367167, -12177.11862052901, 130.15420796325301, 3507.50279516015, 2913.0134478823484, 16228.7299309647, 0.002, 1.01, -0.028, 192.0, 0.0, 0.0, 0.0, 0.0, 0.0, 0.0, 0.0, 0.0, 0.0, 1.694076745810842E9, 0.0, 2023-09-07 16:52:25.810
61.0, 2334.505597890091, -35221.90126441733, -6216.042484765349, -12856.790465925988, 45.12817205526496, 3337.9648134666463, 2839.185635946469, 16234.87666068991, 0.002, 1.01, -0.028, 192.0, 0.0, 0.0, 0.0, 0.0, 0.0, 0.0, 0.0, 0.0, 0.0, 1.69407674581085E9, 0.0, 2023-09-07 16:52:25.810
62.0, 2653.688508711876, -35066.668399175214, -5948.17917921295, -13258.116037621026, 383.44417613079264, 3613.181842944842, 3160.067279346857, 16087.42220251825, 0.002, 1.01, -0.028, 192.0, 0.0, 0.0, 0.0, 0.0, 0.0, 0.0, 0.0, 0.0, 0.0, 1.694076745869924E9, 0.0, 2023-09-07 16:52:25.869
63.0, 2871.9979968068596, -34568.783291433254, -5755.4847902637475, -12501.330673853241, 543.683832130889, 3837.101618898108, 3290.2438390545653, 15918.53242141395, 0.002, 1.01, -0.028, 192.0, 0.0, 0.0, 0.0, 0.0, 0.0, 0.0, 0.0, 0.0, 0.0, 1.694076745869953E9, 0.0, 2023-09-07 16:52:25.869
64.0, 2549.7976004836087, -34778.77793059086, -5998.247086792838, -12098.351073068508, 207.13361586733055, 3584.437499575317, 2972.022053244359, 16194.710575903724, 0.002, 1.01, -0.028, 192.0, 0.0, 0.0, 0.0, 0.0, 0.0, 0.0, 0.0, 0.0, 0.0, 1.69407674587E9, 0.0, 2023-09-07 16:52:25.870
65.0, 2347.3131474629818, -35166.26777246807, -6197.5128886119, -12708.821917631856, 35.62868066175946, 3348.492485105096, 2811.2012518884244, 16262.637527303403, 0.002, 1.01, -0.028, 192.0, 0.0, 0.0, 0.0, 0.0, 0.0, 0.0, 0.0, 0.0, 0.0, 1.694076745870012E9, 0.0, 2023-09-07 16:52:25.870
66.0, 2603.8888220654517, -35112.22125437513, -5985.32777849767, -13251.052886373149, 324.9720126357094, 3570.7582319686694, 3092.274438413911, 16133.355037373905, 0.002, 1.01, -0.028, 192.0, 0.0, 0.0, 0.0, 0.0, 0.0, 0.0, 0.0, 0.0, 0.0, 1.694076745870024E9, 0.0, 2023-09-07 16:52:25.870
67.0, 2860.084517012181, -34611.765696020804, -5767.130049124962, -12648.248690157974, 537.1571227499393, 3819.5331477562368, 3298.290467058476, 15919.784119103448, 0.01, 1.016, -0.03, 192.0, 0.0, 80.0, 31.0, 192.0, 255.0, 16.0, 0.0, 0.0, 0.0, 1.694076745870035E9, 0.0, 2023-09-07 16:52:25.870
68.0, 2567.522533836667, -34732.33100561274, -5982.846734863131, -12092.003177643202, 223.89742420881083, 3600.150775927398, 3000.721693124973, 16128.549412316015, 0.01, 1.016, -0.03, 192.0, 0.0, 0.0, 0.0, 0.0, 0.0, 0.0, 0.0, 0.0, 0.0, 1.694076745870047E9, 0.0, 2023-09-07 16:52:25.870
69.0, 2316.892423259309, -35144.16189720177, -6220.535185400866, -12609.714282717025, 0.8717180337569754, 3336.7578192660594, 2780.579361984654, 16278.417858888848, 0.01, 1.016, -0.03, 192.0, 0.0, 0.0, 0.0, 0.0, 0.0, 0.0, 0.0, 0.0, 0.0, 1.69407674587006E9, 0.0, 2023-09-07 16:52:25.870
70.0, 2527.647021728399, -35180.63994415283, -6048.538511817278, -13243.632107213987, 255.90512226881057, 3514.1412632633765, 3041.133647100168, 16175.085744271964, 0.01, 1.016, -0.03, 192.0, 0.0, 0.0, 0.0, 0.0, 0.0, 0.0, 0.0, 0.0, 0.0, 1.694076745870072E9, 0.0, 2023-09-07 16:52:25.870
71.0, 2878.323540487712, -34658.682007632495, -5756.334156553049, -12788.081203470374, 565.9014661194642, 3832.653621751502, 3323.6596970152495, 15963.638241724759, 0.01, 1.016, -0.03, 192.0, 0.0, 0.0, 0.0, 0.0, 0.0, 0.0, 0.0, 0.0, 0.0, 1.694076745870084E9, 0.0, 2023-09-07 16:52:25.870
72.0, 2646.5359504861776, -34656.84916458716, -5919.278373632237, -12076.53577048013, 301.36857049090514, 3677.376053020484, 3078.8633917407265, 16106.197667860708, 0.01, 1.016, -0.03, 192.0, 0.0, 0.0, 0.0, 0.0, 0.0, 0.0, 0.0, 0.0, 0.0, 1.694076745870099E9, 0.0, 2023-09-07 16:52:25.870
73.0, 2325.386086152326, -35103.01233565954, -6209.4040166621235, -12489.596008014203, 4.895032035712247, 3357.679052076227, 2789.5200597667767, 16287.403260159883, 0.01, 1.016, -0.03, 192.0, 0.0, 0.0, 0.0, 0.0, 0.0, 0.0, 0.0, 0.0, 0.0, 1.694076745870114E9, 0.0, 2023-09-07 16:52:25.870
74.0, 2466.850276809964, -35224.315252818495, -6104.842556100197, -13198.570990392089, 187.77700516903462, 3459.6253585368827, 2971.239742188423, 16192.96713983621, 0.01, 1.016, -0.03, 192.0, 0.0, 0.0, 0.0, 0.0, 0.0, 0.0, 0.0, 0.0, 0.0, 1.694076745870129E9, 0.0, 2023-09-07 16:52:25.870
75.0, 2854.4965808983543, -34740.489392338925, -5783.111546410507, -12947.85147283691, 542.6556518859448, 3809.653676706991, 3308.3487520633644, 15988.515733303517, 0.01, 1.016, -0.03, 192.0, 0.0, 0.0, 0.0, 0.0, 0.0, 0.0, 0.0, 0.0, 0.0, 1.694076745870143E9, 0.0, 2023-09-07 16:52:25.870
76.0, 2736.412314940967, -34576.38288454806, -5853.385430977993, -12094.126593366456, 374.16820218184023, 3750.1980364558744, 3149.271386774944, 16056.688553892203, 0.01, 1.016, -0.03, 192.0, 0.0, 0.0, 0.0, 0.0, 0.0, 0.0, 0.0, 0.0, 0.0, 1.694076745870158E9, 0.0, 2023-09-07 16:52:25.870
77.0, 2363.9875488266407, -35032.93961679216, -6177.105745924205, -12368.091925155155, 31.672421893170107, 3381.416604687763, 2801.0088564168045, 16277.07675422153, 0.022, 1.02, -0.032, 192.0, 0.0, 176.0, 31.0, 224.0, 255.0, 0.0, 0.0, 0.0, 0.0, 1.694076745930268E9, 0.0, 2023-09-07 16:52:25.930
78.0, 2423.2196716332046, -35242.576628038485, -6141.789989684819, -13116.584791730022, 135.4739231436161, 3402.6954654092156, 2908.654857713563, 16202.086651573974, 0.022, 1.02, -0.032, 192.0, 0.0, 0.0, 0.0, 0.0, 0.0, 0.0, 0.0, 0.0, 0.0, 1.6940767459303E9, 0.0, 2023-09-07 16:52:25.930
79.0, 2799.533641282754, -34857.56782979582, -5830.2737272112045, -13096.065890320051, 500.6567240544229, 3753.3496324240728, 3261.1195160293005, 16005.83833525638, 0.022, 1.02, -0.032, 192.0, 0.0, 0.0, 0.0, 0.0, 0.0, 0.0, 0.0, 0.0, 0.0, 1.694076745930308E9, 0.0, 2023-09-07 16:52:25.930
80.0, 2771.124574080059, -34565.94461988743, -5832.039515023174, -12183.421812465407, 416.1447782689069, 3777.5342199247148, 3177.903971422192, 15995.511829318028, 0.022, 1.02, -0.032, 192.0, 0.0, 0.0, 0.0, 0.0, 0.0, 0.0, 0.0, 0.0, 0.0, 1.6940767459304E9, 0.0, 2023-09-07 16:52:25.930
81.0, 2391.3907875288473, -34976.59086902033, -6150.037783388828, -12276.963863010867, 46.893959867234216, 3424.7566371866033, 2823.2041386609244, 16264.60448081547, 0.022, 1.02, -0.032, 192.0, 0.0, 0.0, 0.0, 0.0, 0.0, 0.0, 0.0, 0.0, 0.0, 1.694076745930407E9, 0.0, 2023-09-07 16:52:25.930
82.0, 2387.278066549071, -35238.57566578098, -6178.670368036076, -13018.95237194924, 88.04352140945451, 3370.8442295604027, 2855.927092543494, 16214.715387191223, 0.022, 1.02, -0.032, 192.0, 0.0, 0.0, 0.0, 0.0, 0.0, 0.0, 0.0, 0.0, 0.0, 1.694076745930414E9, 0.0, 2023-09-07 16:52:25.930
83.0, 2772.510382236288, -34927.081755051826, -5857.6322624245, -13186.769269319686, 476.6062470205125, 3707.595611524059, 3218.8523672643146, 16041.489367662594, 0.022, 1.02, -0.032, 192.0, 0.0, 0.0, 0.0, 0.0, 0.0, 0.0, 0.0, 0.0, 0.0, 1.694076745930421E9, 0.0, 2023-09-07 16:52:25.930
84.0, 2822.2653653938014, -34536.70853813989, -5800.121223940996, -12275.399240898996, 467.88906668294277, 3789.9394380974104, 3207.274163636466, 15937.933735601157, 0.022, 1.02, -0.032, 192.0, 0.0, 0.0, 0.0, 0.0, 0.0, 0.0, 0.0, 0.0, 0.0, 1.694076745930428E9, 0.0, 2023-09-07 16:52:25.930
85.0, 2435.0213927056066, -34905.109990252255, -6111.279858503325, -12187.623940423005, 81.27094283949648, 3467.962559218712, 2857.737583844374, 16237.536518280092, 0.022, 1.02, -0.032, 192.0, 0.0, 0.0, 0.0, 0.0, 0.0, 0.0, 0.0, 0.0, 0.0, 1.694076745930434E9, 0.0, 2023-09-07 16:52:25.930
86.0, 2357.7961156125207, -35213.988746880146, -6197.110557211704, -12895.235466389116, 50.38083200226212, 3352.1805229402216, 2816.409208346511, 16241.179852626306, 0.022, 1.02, -0.032, 192.0, 0.0, 0.0, 0.0, 0.0, 0.0, 0.0, 0.0, 0.0, 0.0, 1.694076745930442E9, 0.0, 2023-09-07 16:52:25.930
87.0, 2708.7632070497525, -35011.32547990388, -5899.765300722755, -13257.445485287368, 426.6948016518118, 3668.5024104717268, 3170.036157373924, 16091.534923498026, 0.03, 1.002, -0.042, 192.0, 0.0, 240.0, 31.0, 80.0, 254.0, 176.0, 0.0, 0.0, 0.0, 1.694076745930449E9, 0.0, 2023-09-07 16:52:25.930
88.0, 2862.5208571578096, -34530.2488839923, -5763.889046178943, -12401.127803460098, 517.3087736736267, 3829.814950205678, 3253.2517019810325, 15944.259279282009, 0.03, 1.002, -0.042, 192.0, 0.0, 0.0, 0.0, 0.0, 0.0, 0.0, 0.0, 0.0, 0.0, 1.694076745930456E9, 0.0, 2023-09-07 16:52:25.930
89.0, 2489.6714078988325, -34822.3191287898, -6058.038003210784, -12119.696989023327, 142.64883311376968, 3519.7068476327477, 2884.6937876574743, 16202.936017863276, 0.03, 1.002, -0.042, 192.0, 0.0, 0.0, 0.0, 0.0, 0.0, 0.0, 0.0, 0.0, 0.0, 1.694076745930465E9, 0.0, 2023-09-07 16:52:25.930
90.0, 2327.9341850202304, -35196.77790364956, -6221.362199945713, -12788.237665681561, 23.446979933617108, 3321.491577803085, 2764.4861059768327, 16243.996172427676, 0.03, 1.002, -0.042, 192.0, 0.0, 0.0, 0.0, 0.0, 0.0, 0.0, 0.0, 0.0, 0.0, 1.694076745930472E9, 0.0, 2023-09-07 16:52:25.930
91.0, 2642.9820231177837, -35100.97832691411, -5950.436705402935, -13307.423985889434, 376.1351556939072, 3600.66486604987, 3109.150005477668, 16119.921638956266, 0.03, 1.002, -0.042, 192.0, 0.0, 0.0, 0.0, 0.0, 0.0, 0.0, 0.0, 0.0, 0.0, 1.694076745930478E9, 0.0, 2023-09-07 16:52:25.930
92.0, 2882.793889378773, -34570.30321005621, -5745.918243636876, -12562.999136805432, 558.6595009159447, 3840.074400910664, 3262.8182486079036, 15942.337029258852, 0.03, 1.002, -0.042, 192.0, 0.0, 0.0, 0.0, 0.0, 0.0, 0.0, 0.0, 0.0, 0.0, 1.694076745991118E9, 0.0, 2023-09-07 16:52:25.991
93.0, 2548.6353097719325, -34754.3027704123, -6003.097415339639, -12082.011947871679, 203.95966815467693, 3585.7786042426355, 2946.384602354122, 16171.53181690357, 0.03, 1.002, -0.042, 192.0, 0.0, 0.0, 0.0, 0.0, 0.0, 0.0, 0.0, 0.0, 0.0, 1.694076745991181E9, 0.0, 2023-09-07 16:52:25.991
94.0, 2317.562975592968, -35165.26194396758, -6222.32332495729, -12668.275853189929, -1.6987325786033367, 3325.6266505273165, 2749.130457536037, 16272.047611719086, 0.03, 1.002, -0.042, 192.0, 0.0, 0.0, 0.0, 0.0, 0.0, 0.0, 0.0, 0.0, 0.0, 1.694076745991193E9, 0.0, 2023-09-07 16:52:25.991
95.0, 2571.3446821385246, -35169.46407192518, -6003.611505462111, -13304.25003817678, 306.9565066047319, 3543.936138622301, 3048.1520948591346, 16163.351078432928, 0.03, 1.002, -0.042, 192.0, 0.0, 0.0, 0.0, 0.0, 0.0, 0.0, 0.0, 0.0, 0.0, 1.694076745991204E9, 0.0, 2023-09-07 16:52:25.991
96.0, 2876.691863142474, -34629.33416716268, -5746.90172039291, -12737.275688323462, 568.8295446431094, 3830.9325374284435, 3288.4780512425964, 15955.435151509662, 0.03, 1.002, -0.042, 192.0, 0.0, 0.0, 0.0, 0.0, 0.0, 0.0, 0.0, 0.0, 0.0, 1.694076745991289E9, 0.0, 2023-09-07 16:52:25.991
97.0, 2615.4670256933005, -34667.488594947885, -5935.595147084612, -12065.494008719208, 275.21702947819585, 3639.691011868836, 3009.9976670739256, 16126.358941359395, 0.022, 1.012, -0.052000000000000005, 192.0, 0.0, 176.0, 31.0, 160.0, 254.0, 96.0, 0.0, 0.0, 0.0, 1.694076745991301E9, 0.0, 2023-09-07 16:52:25.991
98.0, 2308.9575539776747, -35123.2406643916, -6215.081359753771, -12554.349011701228, -3.620982601759744, 3326.028981927512, 2761.8486001311067, 16285.212789203262, 0.022, 1.012, -0.052000000000000005, 192.0, 0.0, 0.0, 0.0, 0.0, 0.0, 0.0, 0.0, 0.0, 0.0, 1.694076745991313E9, 0.0, 2023-09-07 16:52:25.991
99.0, 2482.720015373232, -35228.62913949837, -6074.712404574443, -13282.05475593266, 220.36584858487234, 3460.251207381631, 2982.0356347603365, 16176.583311150469, 0.022, 1.012, -0.052000000000000005, 192.0, 0.0, 0.0, 0.0, 0.0, 0.0, 0.0, 0.0, 0.0, 0.0, 1.694076745991324E9, 0.0, 2023-09-07 16:52:25.991
100.0, 2848.2157407064133, -34713.086153636716, -5770.080479393063, -12923.800995803, 549.0929542890733, 3797.650789934491, 3275.961074347624, 15965.962823148111, 0.022, 1.012, -0.052000000000000005, 192.0, 0.0, 0.0, 0.0, 0.0, 0.0, 0.0, 0.0, 0.0, 0.0, 1.694076745991336E9, 0.0, 2023-09-07 16:52:25.991
101.0, 2642.579691717588, -34644.73451909239, -5918.6972282764, -12122.915640224892, 302.06147456901965, 3655.3819364764618, 3033.98108887447, 16032.615725113837, 0.022, 1.012, -0.052000000000000005, 192.0, 0.0, 0.0, 0.0, 0.0, 0.0, 0.0, 0.0, 0.0, 0.0, 1.694076745991347E9, 0.0, 2023-09-07 16:52:25.991
102.0, 2296.2394113826053, -35098.631393746306, -6222.882118568674, -12470.641728716104, -21.055343276899254, 3336.2437291435876, 2722.4424746564, 16261.877567991922, 0.022, 1.012, -0.052000000000000005, 192.0, 0.0, 0.0, 0.0, 0.0, 0.0, 0.0, 0.0, 0.0, 0.0, 1.694076745991362E9, 0.0, 2023-09-07 16:52:25.991
103.0, 2410.5685842715006, -35262.93906723727, -6138.280765805336, -13227.896479117451, 147.56621689393722, 3406.204689288699, 2888.0018458368595, 16182.461819942215, 0.022, 1.012, -0.052000000000000005, 192.0, 0.0, 0.0, 0.0, 0.0, 0.0, 0.0, 0.0, 0.0, 0.0, 1.694076745991373E9, 0.0, 2023-09-07 16:52:25.991
104.0, 2805.1662808854917, -34811.61264319571, -5802.848136764543, -13091.662596662354, 522.4943783872579, 3759.183437726908, 3255.062193281912, 15991.64497752726, 0.022, 1.012, -0.052000000000000005, 192.0, 0.0, 0.0, 0.0, 0.0, 0.0, 0.0, 0.0, 0.0, 0.0, 1.694076745991385E9, 0.0, 2023-09-07 16:52:25.991
105.0, 2704.6281343255205, -34590.598594021634, -5863.220198538327, -12175.419887950407, 369.38492886840453, 3718.726780262802, 3123.4104184401535, 16000.898599731756, 0.022, 1.012, -0.052000000000000005, 192.0, 0.0, 0.0, 0.0, 0.0, 0.0, 0.0, 0.0, 0.0, 0.0, 1.694076745991396E9, 0.0, 2023-09-07 16:52:25.991
106.0, 2331.89044378882, -35029.58685512386, -6184.213600660993, -12358.883006439568, 18.060209519888108, 3362.23880794511, 2769.4928967348214, 16243.996172427676, 0.016, 1.02, -0.052000000000000005, 192.0, 0.0, 128.0, 31.0, 224.0, 254.0, 96.0, 0.0, 0.0, 0.0, 1.694076745991406E9, 0.0, 2023-09-07 16:52:25.991
107.0, 2360.7018423917107, -35271.20921268573, -6177.88805698014, -13126.21839359026, 98.70530351463599, 3347.2407874155983, 2840.7055545694298, 16175.219854738696, 0.016, 1.02, -0.052000000000000005, 192.0, 0.0, 0.0, 0.0, 0.0, 0.0, 0.0, 0.0, 0.0, 0.0, 1.694076746050769E9, 0.0, 2023-09-07 16:52:26.050
108.0, 2758.4958384628103, -34911.681403122115, -5843.282442484194, -13226.063636072116, 490.8219564940878, 3712.02125692621, 3216.907765496703, 16016.231896428097, 0.016, 1.02, -0.052000000000000005, 192.0, 0.0, 0.0, 0.0, 0.0, 0.0, 0.0, 0.0, 0.0, 0.0, 1.694076746050803E9, 0.0, 2023-09-07 16:52:26.050
109.0, 2782.4345567744444, -34538.18375327394, -5807.251430422239, -12257.853121501581, 452.2204938197725, 3775.0531762901755, 3174.908837665181, 15968.466218527106, 0.016, 1.02, -0.052000000000000005, 192.0, 0.0, 0.0, 0.0, 0.0, 0.0, 0.0, 0.0, 0.0, 0.0, 1.694076746050814E9, 0.0, 2023-09-07 16:52:26.050
110.0, 2393.2906858075485, -34940.693967425104, -6122.500434219889, -12249.605327797572, 75.9735794035887, 3440.0452303940333, 2817.79501650274, 16254.881471977411, 0.016, 1.02, -0.052000000000000005, 192.0, 0.0, 0.0, 0.0, 0.0, 0.0, 0.0, 0.0, 0.0, 0.0, 1.694076746050823E9, 0.0, 2023-09-07 16:52:26.050
111.0, 2337.2995659470043, -35254.89243923336, -6188.840411763241, -12994.119583859396, 71.05619562342115, 3347.285490904509, 2832.636574821064, 16247.371285840427, 0.016, 1.02, -0.052000000000000005, 192.0, 0.0, 0.0, 0.0, 0.0, 0.0, 0.0, 0.0, 0.0, 0.0, 1.694076746050832E9, 0.0, 2023-09-07 16:52:26.050
112.0, 2713.479425129822, -34998.517930330985, -5868.741079418788, -13298.192715429392, 464.5139532701914, 3685.2215153242964, 3199.9651431995803, 16096.452307278194, 0.016, 1.02, -0.052000000000000005, 192.0, 0.0, 0.0, 0.0, 0.0, 0.0, 0.0, 0.0, 0.0, 0.0, 1.694076746050873E9, 0.0, 2023-09-07 16:52:26.050
113.0, 2818.3314583696674, -34533.199314260404, -5772.42741256087, -12374.30571011373, 496.1863751633615, 3812.5146999972703, 3227.726009813072, 15966.54396850395, 0.016, 1.02, -0.052000000000000005, 192.0, 0.0, 0.0, 0.0, 0.0, 0.0, 0.0, 0.0, 0.0, 0.0, 1.694076746050882E9, 0.0, 2023-09-07 16:52:26.050
114.0, 2440.430514863791, -34870.7777107689, -6071.761974306342, -12174.011728049723, 123.67220207121397, 3485.732196060681, 2879.083499799192, 16227.321771064017, 0.016, 1.02, -0.052000000000000005, 192.0, 0.0, 0.0, 0.0, 0.0, 0.0, 0.0, 0.0, 0.0, 0.0, 1.694076746050891E9, 0.0, 2023-09-07 16:52:26.050
115.0, 2309.0693126999513, -35227.176276108774, -6212.488557396956, -12873.084887633908, 37.48387545154994, 3312.975563165613, 2763.7932018987185, 16244.666724761335, 0.016, 1.02, -0.052000000000000005, 192.0, 0.0, 0.0, 0.0, 0.0, 0.0, 0.0, 0.0, 0.0, 0.0, 1.694076746050901E9, 0.0, 2023-09-07 16:52:26.050
116.0, 2648.6593662094315, -35085.73443719559, -5927.950850480896, -13353.043896322715, 398.26338270466124, 3614.8135202900794, 3124.6844678741063, 16108.969284173167, 0.002, 1.008, -0.05, 192.0, 0.0, 16.0, 31.0, 128.0, 254.0, 112.0, 0.0, 0.0, 0.0, 1.69407674605091E9, 0.0, 2023-09-07 16:52:26.050
117.0, 2849.5344936292763, -34558.926172128464, -5759.061069376597, -12527.213993932486, 531.2786139581935, 3817.9908773888205, 3248.915463556703, 15936.793796633936, 0.002, 1.008, -0.05, 192.0, 0.0, 0.0, 0.0, 0.0, 0.0, 0.0, 0.0, 0.0, 0.0, 1.69407674605092E9, 0.0, 2023-09-07 16:52:26.050
118.0, 2498.1203673029386, -34799.11801804519, -6030.902985442041, -12119.942858212336, 174.2989032624845, 3534.0119640841444, 2914.511014760854, 16171.10713375892, 0.002, 1.008, -0.05, 192.0, 0.0, 0.0, 0.0, 0.0, 0.0, 0.0, 0.0, 0.0, 0.0, 1.69407674605093E9, 0.0, 2023-09-07 16:52:26.050
119.0, 2283.6553792542672, -35207.327927032464, -6242.104618800237, -12757.81694147789, -5.520880880460845, 3284.4994407295517, 2737.7981230971964, 16231.970933910721, 0.002, 1.008, -0.05, 192.0, 0.0, 0.0, 0.0, 0.0, 0.0, 0.0, 0.0, 0.0, 0.0, 1.694076746050939E9, 0.0, 2023-09-07 16:52:26.050
120.0, 2566.1814291693486, -35175.40963595029, -6002.248049050338, -13375.865027411584, 321.70865794523456, 3523.149016278865, 3060.043222909358, 16102.152002114297, 0.002, 1.008, -0.05, 192.0, 0.0, 0.0, 0.0, 0.0, 0.0, 0.0, 0.0, 0.0, 0.0, 1.694076746050948E9, 0.0, 2023-09-07 16:52:26.050
121.0, 2845.757048816329, -34631.16701020802, -5770.058127648607, -12715.393330501716, 543.8402943420762, 3790.162955541963, 3264.5393329309622, 15901.232171205542, 0.002, 1.008, -0.05, 192.0, 0.0, 0.0, 0.0, 0.0, 0.0, 0.0, 0.0, 0.0, 0.0, 1.694076746050958E9, 0.0, 2023-09-07 16:52:26.050
122.0, 2562.493391334223, -34730.274645122845, -5979.382214472558, -12102.642608003927, 236.3473458704169, 3575.407394815373, 2973.3631579116773, 16096.005272389088, 0.002, 1.008, -0.05, 192.0, 0.0, 0.0, 0.0, 0.0, 0.0, 0.0, 0.0, 0.0, 0.0, 1.694076746111124E9, 0.0, 2023-09-07 16:52:26.111
123.0, 2299.6815800287222, -35157.9976270196, -6222.926822057584, -12623.550012534859, 3.0174855014664534, 3290.7802809214927, 2744.9730330673497, 16245.516091050637, 0.002, 1.008, -0.05, 192.0, 0.0, 0.0, 0.0, 0.0, 0.0, 0.0, 0.0, 0.0, 0.0, 1.694076746111159E9, 0.0, 2023-09-07 16:52:26.111
124.0, 2511.35260002048, -35220.001366138626, -6048.6279187950995, -13325.037160520216, 263.728232828168, 3468.2754836410863, 3012.6575246641073, 16140.082912454953, 0.002, 1.008, -0.05, 192.0, 0.0, 0.0, 0.0, 0.0, 0.0, 0.0, 0.0, 0.0, 0.0, 1.694076746111168E9, 0.0, 2023-09-07 16:52:26.111
125.0, 2854.317766942712, -34689.326249280726, -5766.95123516932, -12870.045050387986, 559.3077015051487, 3784.977350828332, 3288.9250861317023, 15931.027046564466, 0.002, 1.008, -0.05, 192.0, 0.0, 0.0, 0.0, 0.0, 0.0, 0.0, 0.0, 0.0, 0.0, 1.694076746111176E9, 0.0, 2023-09-07 16:52:26.111
126.0, 2634.3766015024903, -34653.786975596784, -5925.715676035366, -12089.96916889777, 302.03912282456434, 3636.114732755987, 3042.3182895562995, 16053.55930966846, 0.01, 1.006, -0.052000000000000005, 192.0, 0.0, 80.0, 31.0, 112.0, 254.0, 96.0, 0.0, 0.0, 0.0, 1.694076746111184E9, 0.0, 2023-09-07 16:52:26.111
127.0, 2295.8370799824097, -35116.91512071075, -6225.698438370042, -12502.492964564915, -8.717180337569754, 3312.550880020962, 2742.4025824549894, 16259.754152268668, 0.01, 1.006, -0.052000000000000005, 192.0, 0.0, 0.0, 0.0, 0.0, 0.0, 0.0, 0.0, 0.0, 0.0, 1.694076746111247E9, 0.0, 2023-09-07 16:52:26.111
128.0, 2434.7308200276875, -35263.09552944845, -6115.750207394387, -13261.558206267144, 186.94999062418827, 3412.418474247274, 2942.6742127745406, 16164.602776122425, 0.01, 1.006, -0.052000000000000005, 192.0, 0.0, 0.0, 0.0, 0.0, 0.0, 0.0, 0.0, 0.0, 0.0, 1.694076746111256E9, 0.0, 2023-09-07 16:52:26.111
129.0, 2820.8572054931174, -34785.84108183874, -5793.90743898242, -13039.24775591466, 541.6498233854561, 3774.3379204676057, 3276.1845917921773, 15983.866570456812, 0.01, 1.006, -0.052000000000000005, 192.0, 0.0, 0.0, 0.0, 0.0, 0.0, 0.0, 0.0, 0.0, 0.0, 1.694076746111263E9, 0.0, 2023-09-07 16:52:26.111
130.0, 2706.706846559864, -34592.476140555875, -5866.796477651176, -12126.916602482392, 371.10601319146315, 3715.664591272425, 3116.9954677814803, 16033.107463491853, 0.01, 1.006, -0.052000000000000005, 192.0, 0.0, 0.0, 0.0, 0.0, 0.0, 0.0, 0.0, 0.0, 0.0, 1.694076746111271E9, 0.0, 2023-09-07 16:52:26.111
131.0, 2344.1615514947835, -35037.34291044986, -6177.485725579944, -12370.997651934345, 28.654936391703654, 3372.0512237609896, 2785.9437806539277, 16278.641376333402, 0.01, 1.006, -0.052000000000000005, 192.0, 0.0, 0.0, 0.0, 0.0, 0.0, 0.0, 0.0, 0.0, 0.0, 1.694076746111279E9, 0.0, 2023-09-07 16:52:26.111
132.0, 2402.3431423119478, -35257.90992473483, -6143.64518447461, -13145.642059521922, 141.8441703133786, 3393.061863548978, 2891.5110697163427, 16216.481175003193, 0.01, 1.006, -0.052000000000000005, 192.0, 0.0, 0.0, 0.0, 0.0, 0.0, 0.0, 0.0, 0.0, 0.0, 1.694076746111287E9, 0.0, 2023-09-07 16:52:26.111
133.0, 2782.479260263355, -34882.691190563586, -5827.256241709739, -13174.364051146991, 502.82484326658766, 3738.016335727732, 3241.44998090863, 16023.898544776268, 0.01, 1.006, -0.052000000000000005, 192.0, 0.0, 0.0, 0.0, 0.0, 0.0, 0.0, 0.0, 0.0, 0.0, 1.694076746111295E9, 0.0, 2023-09-07 16:52:26.111
134.0, 2739.630966142531, -34582.283745084256, -5848.780971620199, -12222.537365262195, 406.93585955332037, 3739.2233299283184, 3136.910872091159, 15977.54102677596, 0.01, 1.006, -0.052000000000000005, 192.0, 0.0, 0.0, 0.0, 0.0, 0.0, 0.0, 0.0, 0.0, 0.0, 1.694076746111303E9, 0.0, 2023-09-07 16:52:26.111
135.0, 2366.2674267610823, -34985.01747667998, -6158.039707903828, -12286.820982315658, 50.581997702359885, 3396.3028664949975, 2770.275207790757, 16242.20803287125, 0.01, 1.006, -0.052000000000000005, 192.0, 0.0, 0.0, 0.0, 0.0, 0.0, 0.0, 0.0, 0.0, 0.0, 1.694076746111311E9, 0.0, 2023-09-07 16:52:26.111
136.0, 2345.435600928736, -35257.77581426809, -6190.315626897291, -13043.069904216518, 79.25928583851885, 3338.389496611297, 2824.992278217349, 16208.322788277006, 0.012, 1.008, -0.052000000000000005, 192.0, 0.0, 96.0, 31.0, 128.0, 254.0, 96.0, 0.0, 0.0, 0.0, 1.694076746111319E9, 0.0, 2023-09-07 16:52:26.111
137.0, 2735.8758730740396, -34970.01945615047, -5858.906311858454, -13280.5348373097, 477.12033714298457, 3691.815279938612, 3219.813492275893, 16053.782827113013, 0.012, 1.008, -0.052000000000000005, 192.0, 0.0, 0.0, 0.0, 0.0, 0.0, 0.0, 0.0, 0.0, 0.0, 1.694076746111327E9, 0.0, 2023-09-07 16:52:26.111
138.0, 2807.4014553310226, -34547.01269233378, -5789.481793580269, -12328.238764791342, 481.3224651005823, 3794.2086212883737, 3206.87183223627, 15955.658668954215, 0.012, 1.008, -0.052000000000000005, 192.0, 0.0, 0.0, 0.0, 0.0, 0.0, 0.0, 0.0, 0.0, 0.0, 1.69407674617094E9, 0.0, 2023-09-07 16:52:26.170
139.0, 2428.3158693690148, -34902.673650106626, -6091.364454193646, -12197.101080072056, 105.9919722070661, 3472.187038920765, 2845.220606949402, 16230.987457154688, 0.012, 1.008, -0.052000000000000005, 192.0, 0.0, 0.0, 0.0, 0.0, 0.0, 0.0, 0.0, 0.0, 0.0, 1.694076746170968E9, 0.0, 2023-09-07 16:52:26.170
140.0, 2327.397743153303, -35239.849715214936, -6203.100824725727, -12913.630952075835, 43.09416330983202, 3327.258327872554, 2791.9563999124052, 16233.826128700512, 0.012, 1.008, -0.052000000000000005, 192.0, 0.0, 0.0, 0.0, 0.0, 0.0, 0.0, 0.0, 0.0, 0.0, 1.694076746170976E9, 0.0, 2023-09-07 16:52:26.170
141.0, 2683.595142793077, -35055.93956183667, -5900.7040739898775, -13336.838881592617, 421.01745856016385, 3642.9096630704003, 3161.274273547444, 16102.599037003403, 0.012, 1.008, -0.052000000000000005, 192.0, 0.0, 0.0, 0.0, 0.0, 0.0, 0.0, 0.0, 0.0, 0.0, 1.694076746170983E9, 0.0, 2023-09-07 16:52:26.170
142.0, 2846.2264354498907, -34548.5549627012, -5762.749107211722, -12466.931339136523, 519.0298579966853, 3803.8645748930667, 3236.5102453840072, 15932.591668676338, 0.012, 1.008, -0.052000000000000005, 192.0, 0.0, 0.0, 0.0, 0.0, 0.0, 0.0, 0.0, 0.0, 0.0, 1.69407674617099E9, 0.0, 2023-09-07 16:52:26.170
143.0, 2481.133041516905, -34817.22293105399, -6047.979718205896, -12128.30241063862, 148.63910062779198, 3519.2374609991866, 2864.443107180966, 16198.44331722776, 0.012, 1.008, -0.052000000000000005, 192.0, 0.0, 0.0, 0.0, 0.0, 0.0, 0.0, 0.0, 0.0, 0.0, 1.694076746171064E9, 0.0, 2023-09-07 16:52:26.171
144.0, 2293.0431119254963, -35212.20060732372, -6230.1240837721925, -12787.902389514731, 1.1846424561312743, 3303.386664794286, 2744.905977833984, 16268.136056439407, 0.012, 1.008, -0.052000000000000005, 192.0, 0.0, 0.0, 0.0, 0.0, 0.0, 0.0, 0.0, 0.0, 0.0, 1.694076746171071E9, 0.0, 2023-09-07 16:52:26.171
145.0, 2613.164796014404, -35123.50888532506, -5948.827379802154, -13357.313079513679, 366.4568503447593, 3581.665883262859, 3117.1519299926676, 16144.508557857103, 0.012, 1.008, -0.052000000000000005, 192.0, 0.0, 0.0, 0.0, 0.0, 0.0, 0.0, 0.0, 0.0, 0.0, 1.694076746171079E9, 0.0, 2023-09-07 16:52:26.171
146.0, 2877.8988573430606, -34561.451919251915, -5724.929955593343, -12617.470338043016, 572.0258441002184, 3835.3805345750493, 3303.587830494384, 15954.988116620556, 0.024, 1.018, -0.056, 192.0, 0.0, 192.0, 31.0, 208.0, 254.0, 64.0, 0.0, 0.0, 0.0, 1.694076746171086E9, 0.0, 2023-09-07 16:52:26.171
147.0, 2551.7645539956757, -34725.53607529832, -5973.235484747349, -12081.766078682671, 224.88090096484436, 3582.828173974535, 2975.1960009570125, 16165.429790667271, 0.024, 1.018, -0.056, 192.0, 0.0, 0.0, 0.0, 0.0, 0.0, 0.0, 0.0, 0.0, 0.0, 1.694076746171094E9, 0.0, 2023-09-07 16:52:26.171
148.0, 2289.958571190664, -35162.91501079977, -6219.171728989092, -12656.764704795445, -4.425645402150798, 3300.391531037275, 2739.87683533154, 16265.431495360315, 0.024, 1.018, -0.056, 192.0, 0.0, 0.0, 0.0, 0.0, 0.0, 0.0, 0.0, 0.0, 0.0, 1.694076746171101E9, 0.0, 2023-09-07 16:52:26.171
149.0, 2534.710172976276, -35192.08403731394, -6014.385046289569, -13340.012829305271, 289.43273895177117, 3505.4240829258065, 3021.665277679596, 16147.302525914018, 0.024, 1.018, -0.056, 192.0, 0.0, 0.0, 0.0, 0.0, 0.0, 0.0, 0.0, 0.0, 0.0, 1.694076746171108E9, 0.0, 2023-09-07 16:52:26.171
150.0, 2865.2254182369015, -34636.95611202194, -5738.251595288706, -12808.465994413615, 571.3999952554698, 3814.571060487159, 3295.8988304017585, 15955.412799765207, 0.024, 1.018, -0.056, 192.0, 0.0, 0.0, 0.0, 0.0, 0.0, 0.0, 0.0, 0.0, 0.0, 1.694076746171115E9, 0.0, 2023-09-07 16:52:26.171
151.0, 2618.2833454946694, -34649.16016449453, -5917.624344542545, -12081.654319960395, 292.33846573096105, 3643.4461049373276, 3025.6662399370957, 16096.452307278194, 0.024, 1.018, -0.056, 192.0, 0.0, 0.0, 0.0, 0.0, 0.0, 0.0, 0.0, 0.0, 0.0, 1.694076746171121E9, 0.0, 2023-09-07 16:52:26.171
152.0, 2305.5824405649237, -35106.56626302794, -6201.5138508694, -12531.304363167807, 3.8668517907681217, 3332.868615730836, 2729.3491636930903, 16280.36246065646, 0.024, 1.018, -0.056, 192.0, 0.0, 0.0, 0.0, 0.0, 0.0, 0.0, 0.0, 0.0, 0.0, 1.694076746171128E9, 0.0, 2023-09-07 16:52:26.171
153.0, 2478.1826112488047, -35226.66218598631, -6062.374241635113, -13279.529008809212, 223.9868311866321, 3450.863474710402, 2974.9277800235486, 16176.62801463938, 0.024, 1.018, -0.056, 192.0, 0.0, 0.0, 0.0, 0.0, 0.0, 0.0, 0.0, 0.0, 0.0, 1.694076746231202E9, 0.0, 2023-09-07 16:52:26.231
154.0, 2857.759935588829, -34715.47779029343, -5741.961984868287, -12965.688164912244, 560.0453090721737, 3810.65950520748, 3323.6373452707944, 15997.568189807915, 0.024, 1.018, -0.056, 192.0, 0.0, 0.0, 0.0, 0.0, 0.0, 0.0, 0.0, 0.0, 0.0, 1.694076746231257E9, 0.0, 2023-09-07 16:52:26.231
155.0, 2675.81673572263, -34601.19332089345, -5872.250303298271, -12111.24802961922, 355.23627462819513, 3706.0980446455533, 3112.502767145964, 16068.08794356441, 0.024, 1.018, -0.056, 192.0, 0.0, 0.0, 0.0, 0.0, 0.0, 0.0, 0.0, 0.0, 0.0, 1.694076746231265E9, 0.0, 2023-09-07 16:52:26.231
156.0, 2331.7339815776327, -35047.803526854936, -6171.115478410182, -12413.823594310714, 34.33227948335165, 3369.1454969817996, 2794.660960991497, 16306.424594691349, 0.03, 1.016, -0.052000000000000005, 192.0, 0.0, 240.0, 31.0, 192.0, 254.0, 96.0, 0.0, 0.0, 0.0, 1.694076746231273E9, 0.0, 2023-09-07 16:52:26.231
157.0, 2408.2887063370595, -35249.93035196428, -6121.40519874158, -13191.284321699659, 158.00448155456561, 3402.1813752867433, 2918.2884595738005, 16221.242096572174, 0.03, 1.016, -0.052000000000000005, 192.0, 0.0, 0.0, 0.0, 0.0, 0.0, 0.0, 0.0, 0.0, 0.0, 1.69407674623128E9, 0.0, 2023-09-07 16:52:26.231
158.0, 2810.3965890880336, -34819.815733410804, -5783.983264444264, -13128.431216291336, 547.5953874105677, 3761.2621499612515, 3287.1592983197334, 16016.880097017302, 0.03, 1.016, -0.052000000000000005, 192.0, 0.0, 0.0, 0.0, 0.0, 0.0, 0.0, 0.0, 0.0, 0.0, 1.694076746231287E9, 0.0, 2023-09-07 16:52:26.231
159.0, 2737.3957916970007, -34555.729872671356, -5826.138654486973, -12175.308129228131, 415.16130151287337, 3735.825864771112, 3154.81461939986, 16008.297027146464, 0.03, 1.016, -0.052000000000000005, 192.0, 0.0, 0.0, 0.0, 0.0, 0.0, 0.0, 0.0, 0.0, 0.0, 1.69407674623136E9, 0.0, 2023-09-07 16:52:26.231
160.0, 2326.3248594194483, -35021.02613699748, -6173.909446467095, -12333.267907293786, 18.01550603097749, 3364.250464946087, 2783.0827573636484, 16265.498550593682, 0.03, 1.016, -0.052000000000000005, 192.0, 0.0, 0.0, 0.0, 0.0, 0.0, 0.0, 0.0, 0.0, 0.0, 1.694076746231367E9, 0.0, 2023-09-07 16:52:26.231
161.0, 2342.306356704993, -35278.47352963371, -6184.012434960894, -13109.700454437787, 81.69562598414731, 3332.846263986381, 2844.9970895048486, 16203.695977174757, 0.03, 1.016, -0.052000000000000005, 192.0, 0.0, 0.0, 0.0, 0.0, 0.0, 0.0, 0.0, 0.0, 0.0, 1.694076746231374E9, 0.0, 2023-09-07 16:52:26.231
162.0, 2750.5386174367213, -34935.28484526692, -5837.403933692448, -13265.805037713651, 490.2855146271604, 3692.6199427390034, 3238.87953029627, 16032.973353025121, 0.03, 1.016, -0.052000000000000005, 192.0, 0.0, 0.0, 0.0, 0.0, 0.0, 0.0, 0.0, 0.0, 0.0, 1.694076746231381E9, 0.0, 2023-09-07 16:52:26.231
163.0, 2772.2645130472797, -34552.24300053633, -5806.29030541066, -12298.041558032222, 447.12429608396246, 3754.3554609245616, 3191.650294262206, 15954.071695097888, 0.03, 1.016, -0.052000000000000005, 192.0, 0.0, 0.0, 0.0, 0.0, 0.0, 0.0, 0.0, 0.0, 0.0, 1.694076746231388E9, 0.0, 2023-09-07 16:52:26.231
164.0, 2364.121659293373, -34959.29061881192, -6146.103876364694, -12259.797723269192, 42.15539004270912, 3398.0463025625113, 2807.6249727755753, 16223.857250673444, 0.03, 1.016, -0.052000000000000005, 192.0, 0.0, 0.0, 0.0, 0.0, 0.0, 0.0, 0.0, 0.0, 0.0, 1.694076746231395E9, 0.0, 2023-09-07 16:52:26.231
165.0, 2302.9672864636527, -35275.05371273204, -6227.017191292905, -12999.372243806392, 25.235119490041672, 3282.3760250062974, 2791.5540685122096, 16205.528820220092, 0.03, 1.016, -0.052000000000000005, 192.0, 0.0, 0.0, 0.0, 0.0, 0.0, 0.0, 0.0, 0.0, 0.0, 1.694076746231402E9, 0.0, 2023-09-07 16:52:26.231
166.0, 2696.380340621512, -35038.50520116153, -5890.265809329249, -13352.753323644796, 440.172903558362, 3631.6220321204705, 3187.2022971156, 16057.783789370513, 0.026000000000000002, 1.002, -0.052000000000000005, 192.0, 0.0, 208.0, 31.0, 80.0, 254.0, 96.0, 0.0, 0.0, 0.0, 1.694076746231409E9, 0.0, 2023-09-07 16:52:26.231
167.0, 2827.6297840630755, -34541.44710796441, -5771.086307893552, -12426.139405505588, 502.6236775664899, 3791.2134875313627, 3244.7580390880157, 15943.25345078152, 0.026000000000000002, 1.002, -0.052000000000000005, 192.0, 0.0, 0.0, 0.0, 0.0, 0.0, 0.0, 0.0, 0.0, 0.0, 1.694076746231418E9, 0.0, 2023-09-07 16:52:26.231
168.0, 2435.8037037615422, -34867.33554212279, -6085.754166335365, -12179.711422885826, 107.51189083002697, 3465.8167917510027, 2870.5227816728097, 16206.06526208702, 0.026000000000000002, 1.002, -0.052000000000000005, 192.0, 0.0, 0.0, 0.0, 0.0, 0.0, 0.0, 0.0, 0.0, 0.0, 1.694076746291516E9, 0.0, 2023-09-07 16:52:26.291
169.0, 2308.9128504887644, -35218.950834149226, -6223.999705791439, -12851.269585045527, 16.316773452374157, 3286.8240221529036, 2759.0546320741933, 16236.776558968611, 0.026000000000000002, 1.002, -0.052000000000000005, 192.0, 0.0, 0.0, 0.0, 0.0, 0.0, 0.0, 0.0, 0.0, 0.0, 1.694076746291567E9, 0.0, 2023-09-07 16:52:26.291
170.0, 2640.5009794832445, -35102.3864868148, -5939.5067023642905, -13373.965129132883, 380.7396150517005, 3589.824269989046, 3129.8924243321926, 16110.288037096028, 0.026000000000000002, 1.002, -0.052000000000000005, 192.0, 0.0, 0.0, 0.0, 0.0, 0.0, 0.0, 0.0, 0.0, 0.0, 1.694076746291577E9, 0.0, 2023-09-07 16:52:26.291
171.0, 2833.642403321553, -34591.47031205539, -5779.021177175186, -12598.49370700046, 509.91034625892, 3788.240705518807, 3259.3090247284204, 15931.161157031198, 0.026000000000000002, 1.002, -0.052000000000000005, 192.0, 0.0, 0.0, 0.0, 0.0, 0.0, 0.0, 0.0, 0.0, 0.0, 1.694076746291584E9, 0.0, 2023-09-07 16:52:26.291
172.0, 2508.6033354524775, -34783.58355564875, -6027.125540629094, -12123.519137325186, 171.28141776101802, 3536.761228652147, 2949.2009221554904, 16168.402572679828, 0.026000000000000002, 1.002, -0.052000000000000005, 192.0, 0.0, 0.0, 0.0, 0.0, 0.0, 0.0, 0.0, 0.0, 0.0, 1.694076746291591E9, 0.0, 2023-09-07 16:52:26.291
173.0, 2293.490146814602, -35184.752665132604, -6236.717848386508, -12716.265048535473, -10.550023382904934, 3290.132080332289, 2777.74069043883, 16261.296422636084, 0.026000000000000002, 1.002, -0.052000000000000005, 192.0, 0.0, 0.0, 0.0, 0.0, 0.0, 0.0, 0.0, 0.0, 0.0, 1.694076746291599E9, 0.0, 2023-09-07 16:52:26.291
174.0, 2577.2902461636363, -35165.597220134405, -5996.347188514136, -13359.660012681486, 315.5172247311145, 3532.6485076723707, 3100.812804795838, 16150.38706664885, 0.026000000000000002, 1.002, -0.052000000000000005, 192.0, 0.0, 0.0, 0.0, 0.0, 0.0, 0.0, 0.0, 0.0, 0.0, 1.694076746291606E9, 0.0, 2023-09-07 16:52:26.291
175.0, 2897.635447697097, -34597.32646910268, -5727.008667827687, -12725.049284106408, 569.1424690654837, 3828.205624604896, 3321.1115981473445, 15959.704334700626, 0.026000000000000002, 1.002, -0.052000000000000005, 192.0, 0.0, 0.0, 0.0, 0.0, 0.0, 0.0, 0.0, 0.0, 0.0, 1.694076746291683E9, 0.0, 2023-09-07 16:52:26.291
176.0, 2591.03656900365, -34692.63430746011, -5960.204417729905, -12079.709718192784, 246.62914831985813, 3590.7183397672584, 3009.081245551258, 16103.224885848153, 0.02, 1.0, -0.042, 192.0, 0.0, 160.0, 31.0, 64.0, 254.0, 176.0, 0.0, 0.0, 0.0, 1.69407674629169E9, 0.0, 2023-09-07 16:52:26.291
177.0, 2303.6825422862225, -35133.67892905223, -6221.809234834819, -12585.909674872122, -7.68900009262563, 3298.379874036297, 2789.6094667445977, 16270.930024496321, 0.02, 1.0, -0.042, 192.0, 0.0, 0.0, 0.0, 0.0, 0.0, 0.0, 0.0, 0.0, 0.0, 1.694076746291697E9, 0.0, 2023-09-07 16:52:26.291
178.0, 2502.0989778159833, -35220.78367719456, -6056.518084587823, -13316.990532516305, 237.6884505377353, 3463.8498382389357, 3032.5282254848753, 16175.309261716517, 0.02, 1.0, -0.042, 192.0, 0.0, 0.0, 0.0, 0.0, 0.0, 0.0, 0.0, 0.0, 0.0, 1.694076746291704E9, 0.0, 2023-09-07 16:52:26.291
179.0, 2857.245845466357, -34701.15032209758, -5762.167961855885, -12928.248992949604, 553.2056752688497, 3793.359254999072, 3323.257365615054, 15970.567282505905, 0.02, 1.0, -0.042, 192.0, 0.0, 0.0, 0.0, 0.0, 0.0, 0.0, 0.0, 0.0, 0.0, 1.694076746291711E9, 0.0, 2023-09-07 16:52:26.291
180.0, 2651.073354610605, -34633.580998609184, -5910.717655505855, -12111.337436597043, 306.21889903770676, 3656.0971922990316, 3102.2656681854332, 16060.80127487198, 0.02, 1.0, -0.042, 192.0, 0.0, 0.0, 0.0, 0.0, 0.0, 0.0, 0.0, 0.0, 0.0, 1.694076746291718E9, 0.0, 2023-09-07 16:52:26.291
181.0, 2322.882690773331, -35081.93464063819, -6202.98906600345, -12470.395859527096, 0.5140901224720624, 3329.873481973825, 2803.6016587736203, 16269.432457617815, 0.02, 1.0, -0.042, 192.0, 0.0, 0.0, 0.0, 0.0, 0.0, 0.0, 0.0, 0.0, 0.0, 1.694076746291725E9, 0.0, 2023-09-07 16:52:26.291
182.0, 2451.1593522023386, -35244.051843172536, -6104.9766665669285, -13233.059732086627, 181.96555161065479, 3421.6944481962264, 2986.9977220294145, 16190.709613646224, 0.02, 1.0, -0.042, 192.0, 0.0, 0.0, 0.0, 0.0, 0.0, 0.0, 0.0, 0.0, 0.0, 1.694076746291731E9, 0.0, 2023-09-07 16:52:26.291
183.0, 2841.3761069030893, -34786.064599283294, -5777.300092852127, -13074.071773776028, 550.1211345340174, 3777.489516435804, 3341.2728716460315, 16016.008378983544, 0.02, 1.0, -0.042, 192.0, 0.0, 0.0, 0.0, 0.0, 0.0, 0.0, 0.0, 0.0, 0.0, 1.694076746351735E9, 0.0, 2023-09-07 16:52:26.351
184.0, 2718.06153274316, -34583.62484975158, -5864.673061927922, -12152.665812094905, 372.0000829696754, 3709.3166958471174, 3164.0682416043574, 16028.41359715624, 0.02, 1.0, -0.042, 192.0, 0.0, 0.0, 0.0, 0.0, 0.0, 0.0, 0.0, 0.0, 0.0, 1.694076746351763E9, 0.0, 2023-09-07 16:52:26.351
185.0, 2338.439504914225, -35038.10286976134, -6190.807365275307, -12364.292128597752, 8.113683237276463, 3349.3642031388526, 2814.6657722789973, 16268.180759928318, 0.02, 1.0, -0.042, 192.0, 0.0, 0.0, 0.0, 0.0, 0.0, 0.0, 0.0, 0.0, 0.0, 1.694076746351771E9, 0.0, 2023-09-07 16:52:26.351
186.0, 2389.2897235500486, -35262.69319804826, -6161.6830422500425, -13131.292239581615, 112.38457112128391, 3358.6625288322603, 2918.2214043404347, 16211.25086680065, 0.018000000000000002, 0.99, -0.042, 192.0, 0.0, 144.0, 30.0, 240.0, 254.0, 176.0, 0.0, 0.0, 0.0, 1.69407674635178E9, 0.0, 2023-09-07 16:52:26.351
187.0, 2801.3664843280894, -34885.0828272203, -5814.493395625758, -13203.577781150077, 518.426360896392, 3735.110608948542, 3311.9920864095793, 16047.636097387804, 0.018000000000000002, 0.99, -0.042, 192.0, 0.0, 0.0, 0.0, 0.0, 0.0, 0.0, 0.0, 0.0, 0.0, 1.694076746351789E9, 0.0, 2023-09-07 16:52:26.351
188.0, 2802.9534581844164, -34528.5501514137, -5800.255334407728, -12216.010655881246, 456.0202903771747, 3779.590580414603, 3242.9475477871356, 15999.557495064439, 0.018000000000000002, 0.99, -0.042, 192.0, 0.0, 0.0, 0.0, 0.0, 0.0, 0.0, 0.0, 0.0, 0.0, 1.694076746351797E9, 0.0, 2023-09-07 16:52:26.351
189.0, 2404.4218545462913, -34946.59482796131, -6127.97661161144, -12236.887185202502, 66.49643975453851, 3423.2590703080978, 2873.540267174276, 16268.560739584058, 0.018000000000000002, 0.99, -0.042, 192.0, 0.0, 0.0, 0.0, 0.0, 0.0, 0.0, 0.0, 0.0, 0.0, 1.694076746351805E9, 0.0, 2023-09-07 16:52:26.351
190.0, 2352.5434556655237, -35246.51053506262, -6196.976446744972, -12997.85232518343, 63.054271108421226, 3330.61108954085, 2865.8736188261055, 16233.02146590012, 0.018000000000000002, 0.99, -0.042, 192.0, 0.0, 0.0, 0.0, 0.0, 0.0, 0.0, 0.0, 0.0, 0.0, 1.69407674635184E9, 0.0, 2023-09-07 16:52:26.351
191.0, 2744.5930534116096, -34978.803691721405, -5859.934492103397, -13292.738889782297, 470.81714520658795, 3684.618018224003, 3259.8231148508926, 16075.933405868222, 0.018000000000000002, 0.99, -0.042, 192.0, 0.0, 0.0, 0.0, 0.0, 0.0, 0.0, 0.0, 0.0, 0.0, 1.694076746351848E9, 0.0, 2023-09-07 16:52:26.351
192.0, 2830.5578625867206, -34534.20514276089, -5779.803488231121, -12347.148340600532, 480.13782264445103, 3790.0288450752314, 3264.137001530767, 15953.244680553042, 0.018000000000000002, 0.99, -0.042, 192.0, 0.0, 0.0, 0.0, 0.0, 0.0, 0.0, 0.0, 0.0, 0.0, 1.694076746351856E9, 0.0, 2023-09-07 16:52:26.351
193.0, 2437.502436340146, -34886.58039409881, -6093.666683872543, -12172.2235884933, 85.00368416353275, 3462.0840504269663, 2892.2933807722784, 16219.118680848918, 0.018000000000000002, 0.99, -0.042, 192.0, 0.0, 0.0, 0.0, 0.0, 0.0, 0.0, 0.0, 0.0, 0.0, 1.694076746351864E9, 0.0, 2023-09-07 16:52:26.351
194.0, 2315.730132547633, -35234.30648259002, -6223.150339502137, -12879.87981794832, 18.663706620181397, 3303.1854990941883, 2803.8922314515394, 16236.798910713067, 0.018000000000000002, 0.99, -0.042, 192.0, 0.0, 0.0, 0.0, 0.0, 0.0, 0.0, 0.0, 0.0, 0.0, 1.694076746351873E9, 0.0, 2023-09-07 16:52:26.351
195.0, 2676.2637706117357, -35069.70823642114, -5913.399864840492, -13347.92534684245, 407.7181706092561, 3628.33632568554, 3168.6950527066056, 16109.975112673656, 0.01, 1.008, -0.036000000000000004, 192.0, 0.0, 80.0, 31.0, 128.0, 254.0, 224.0, 0.0, 0.0, 0.0, 1.694076746351881E9, 0.0, 2023-09-07 16:52:26.351
196.0, 2840.1691127025024, -34565.989323376336, -5771.443935804837, -12511.634828047137, 505.104721201029, 3799.1036533240863, 3268.4061847217304, 15941.733532158558, 0.01, 1.008, -0.036000000000000004, 192.0, 0.0, 0.0, 0.0, 0.0, 0.0, 0.0, 0.0, 0.0, 0.0, 1.694076746351889E9, 0.0, 2023-09-07 16:52:26.351
197.0, 2477.2438379816817, -34819.972195621995, -6049.589043806678, -12132.459835107307, 135.22805395460773, 3501.1996032237535, 2950.050288444792, 16178.974947807188, 0.01, 1.008, -0.036000000000000004, 192.0, 0.0, 0.0, 0.0, 0.0, 0.0, 0.0, 0.0, 0.0, 0.0, 1.694076746351897E9, 0.0, 2023-09-07 16:52:26.351
198.0, 2299.2345451396163, -35198.34252576143, -6224.84907208074, -12750.217348363085, -5.342066924818388, 3293.1495658337553, 2807.2449931198353, 16259.642393546392, 0.01, 1.008, -0.036000000000000004, 192.0, 0.0, 0.0, 0.0, 0.0, 0.0, 0.0, 0.0, 0.0, 0.0, 1.69407674641146E9, 0.0, 2023-09-07 16:52:26.411
199.0, 2598.099720251527, -35147.916990270256, -5970.083888779151, -13354.630870179042, 339.50064653165896, 3550.46284800325, 3144.2422442724996, 16139.747636288124, 0.01, 1.008, -0.036000000000000004, 192.0, 0.0, 0.0, 0.0, 0.0, 0.0, 0.0, 0.0, 0.0, 0.0, 1.694076746411516E9, 0.0, 2023-09-07 16:52:26.411
200.0, 2856.2623687103237, -34608.68115528597, -5753.696650707323, -12679.98816728451, 540.845160585065, 3791.9287433539325, 3313.6014120103614, 15940.43713098015, 0.01, 1.008, -0.036000000000000004, 192.0, 0.0, 0.0, 0.0, 0.0, 0.0, 0.0, 0.0, 0.0, 0.0, 1.694076746411524E9, 0.0, 2023-09-07 16:52:26.411
201.0, 2550.5352080506336, -34732.241598634915, -5982.75732788531, -12091.01970088717, 212.92271768125508, 3561.839885931002, 2998.1288907681574, 16123.47556632466, 0.01, 1.008, -0.036000000000000004, 192.0, 0.0, 0.0, 0.0, 0.0, 0.0, 0.0, 0.0, 0.0, 0.0, 1.694076746411531E9, 0.0, 2023-09-07 16:52:26.411
202.0, 2281.464908297647, -35171.22985973714, -6234.952060574539, -12630.79197773838, -25.659802634692507, 3275.26817026951, 2770.4987252353103, 16261.36347786945, 0.01, 1.008, -0.036000000000000004, 192.0, 0.0, 0.0, 0.0, 0.0, 0.0, 0.0, 0.0, 0.0, 0.0, 1.694076746411539E9, 0.0, 2023-09-07 16:52:26.411
203.0, 2510.5479372200894, -35219.39786903833, -6043.084686170183, -13334.983686802827, 253.82641003446702, 3470.0412714530557, 3034.025792363381, 16156.354982418417, 0.01, 1.008, -0.036000000000000004, 192.0, 0.0, 0.0, 0.0, 0.0, 0.0, 0.0, 0.0, 0.0, 0.0, 1.694076746411546E9, 0.0, 2023-09-07 16:52:26.411
204.0, 2862.722022857907, -34670.796653127276, -5749.047487860619, -12852.476579246115, 560.4699922168246, 3789.5371066972148, 3323.7938074819813, 15953.691715442148, 0.01, 1.008, -0.036000000000000004, 192.0, 0.0, 0.0, 0.0, 0.0, 0.0, 0.0, 0.0, 0.0, 0.0, 1.694076746411554E9, 0.0, 2023-09-07 16:52:26.411
205.0, 2627.4028572324346, -34651.976484295905, -5919.7254085213435, -12085.409413028887, 289.566849418503, 3632.0020117762106, 3088.8546215122487, 16079.599091958893, -0.004, 1.006, -0.042, 192.0, 255.0, 224.0, 31.0, 112.0, 254.0, 176.0, 0.0, 0.0, 0.0, 1.694076746411561E9, 0.0, 2023-09-07 16:52:26.411
206.0, 2295.434748582214, -35116.289271866, -6218.344714444246, -12506.538630311326, -19.04368627592162, 3302.9843333940908, 2781.920466651972, 16268.627794817425, -0.004, 1.006, -0.042, 192.0, 0.0, 0.0, 0.0, 0.0, 0.0, 0.0, 0.0, 0.0, 0.0, 1.694076746411651E9, 0.0, 2023-09-07 16:52:26.411
207.0, 2454.8026865485535, -35247.605770540926, -6092.482041416412, -13258.473665532312, 193.58845872741446, 3417.894651638824, 2992.250381976412, 16173.7669913491, -0.004, 1.006, -0.042, 192.0, 0.0, 0.0, 0.0, 0.0, 0.0, 0.0, 0.0, 0.0, 0.0, 1.694076746411658E9, 0.0, 2023-09-07 16:52:26.411
208.0, 2840.571444102698, -34759.62248559266, -5763.553770012113, -13015.912534703319, 553.2056752688497, 3780.4175949594496, 3335.32730762092, 15994.9753874511, -0.004, 1.006, -0.042, 192.0, 0.0, 0.0, 0.0, 0.0, 0.0, 0.0, 0.0, 0.0, 0.0, 1.694076746411665E9, 0.0, 2023-09-07 16:52:26.411
209.0, 2704.762244792252, -34586.70939048641, -5855.173570534417, -12111.695064508327, 368.3120451345498, 3712.2224226263074, 3153.428811243631, 16057.672030648237, -0.004, 1.006, -0.042, 192.0, 0.0, 0.0, 0.0, 0.0, 0.0, 0.0, 0.0, 0.0, 0.0, 1.694076746411673E9, 0.0, 2023-09-07 16:52:26.411
210.0, 2326.7718943085547, -35053.10089029084, -6184.347711127724, -12382.77702126229, 5.699694836103301, 3345.3408891368977, 2806.350923341623, 16282.441172890804, -0.004, 1.006, -0.042, 192.0, 0.0, 0.0, 0.0, 0.0, 0.0, 0.0, 0.0, 0.0, 0.0, 1.69407674641168E9, 0.0, 2023-09-07 16:52:26.411
211.0, 2411.105026138428, -35252.47845083218, -6129.3400680232135, -13151.498216569213, 140.41365866823898, 3387.0492442905006, 2939.0755819172364, 16224.080768117998, -0.004, 1.006, -0.042, 192.0, 0.0, 0.0, 0.0, 0.0, 0.0, 0.0, 0.0, 0.0, 0.0, 1.694076746411687E9, 0.0, 2023-09-07 16:52:26.411
212.0, 2825.3275543841787, -34838.99353015346, -5778.752956241722, -13141.752855986699, 542.4097826969365, 3764.100821507075, 3324.2184906266325, 16060.13072253832, -0.004, 1.006, -0.042, 192.0, 0.0, 0.0, 0.0, 0.0, 0.0, 0.0, 0.0, 0.0, 0.0, 1.694076746411695E9, 0.0, 2023-09-07 16:52:26.411
213.0, 2780.7581759402965, -34536.73088988434, -5798.176622173384, -12177.140972273466, 432.75212439920006, 3762.424440672927, 3217.6677248081837, 16026.625457599815, -0.004, 1.006, -0.042, 192.0, 0.0, 0.0, 0.0, 0.0, 0.0, 0.0, 0.0, 0.0, 0.0, 1.694076746471728E9, 0.0, 2023-09-07 16:52:26.471
214.0, 2372.235342530649, -34980.413017322186, -6138.280765805336, -12270.817133285658, 53.375965759273264, 3394.3582647273856, 2846.5840633611756, 16284.117553724953, -0.004, 1.006, -0.042, 192.0, 0.0, 0.0, 0.0, 0.0, 0.0, 0.0, 0.0, 0.0, 0.0, 1.694076746471797E9, 0.0, 2023-09-07 16:52:26.471
215.0, 2351.9399585652304, -35264.92837249379, -6181.397280859624, -13041.170005937816, 81.82973645087915, 3332.846263986381, 2866.7453368598626, 16233.937887422788, 0.004, 1.016, -0.046, 192.0, 0.0, 32.0, 31.0, 192.0, 254.0, 144.0, 0.0, 0.0, 0.0, 1.694076746471806E9, 0.0, 2023-09-07 16:52:26.471
216.0, 2755.4336494724334, -34958.798880433904, -5837.023954036707, -13262.72049697882, 492.0289506946744, 3695.995056151755, 3264.1817050196773, 16076.402792501784, 0.004, 1.016, -0.046, 192.0, 0.0, 0.0, 0.0, 0.0, 0.0, 0.0, 0.0, 0.0, 0.0, 1.694076746471815E9, 0.0, 2023-09-07 16:52:26.471
217.0, 2802.1040918951144, -34555.707520926895, -5788.922999968887, -12316.571154185673, 472.58293301855724, 3774.516734423248, 3233.425704649175, 15975.507018030528, 0.004, 1.016, -0.046, 192.0, 0.0, 0.0, 0.0, 0.0, 0.0, 0.0, 0.0, 0.0, 0.0, 1.694076746471823E9, 0.0, 2023-09-07 16:52:26.471
218.0, 2409.696866237744, -34919.035127047915, -6106.8542131011745, -12206.354702276552, 81.85208819533446, 3436.424247792274, 2864.7113281144298, 16246.343105595482, 0.004, 1.016, -0.046, 192.0, 0.0, 0.0, 0.0, 0.0, 0.0, 0.0, 0.0, 0.0, 0.0, 1.69407674647183E9, 0.0, 2023-09-07 16:52:26.471
219.0, 2312.2879639015155, -35249.88564847537, -6216.869499310195, -12929.277173194549, 28.789046858435498, 3296.0105891240346, 2814.777531001274, 16241.40337007086, 0.004, 1.016, -0.046, 192.0, 0.0, 0.0, 0.0, 0.0, 0.0, 0.0, 0.0, 0.0, 0.0, 1.694076746471838E9, 0.0, 2023-09-07 16:52:26.471
220.0, 2686.322055616624, -35050.955122823136, -5890.086995373606, -13333.240250735314, 433.2662145216721, 3639.109866512998, 3206.9835909585468, 16115.786566232035, 0.004, 1.016, -0.046, 192.0, 0.0, 0.0, 0.0, 0.0, 0.0, 0.0, 0.0, 0.0, 0.0, 1.694076746471846E9, 0.0, 2023-09-07 16:52:26.471
221.0, 2831.451932364933, -34563.46357625289, -5762.972624656275, -12466.908987392068, 513.620735838501, 3788.8442026191, 3267.7579841325264, 15945.600383949326, 0.004, 1.016, -0.046, 192.0, 0.0, 0.0, 0.0, 0.0, 0.0, 0.0, 0.0, 0.0, 0.0, 1.694076746471854E9, 0.0, 2023-09-07 16:52:26.471
222.0, 2451.785201047087, -34853.99155068297, -6066.15168644806, -12152.88932953946, 125.50504511654916, 3474.310454644019, 2901.435244254499, 16175.599834394436, 0.004, 1.016, -0.046, 192.0, 0.0, 0.0, 0.0, 0.0, 0.0, 0.0, 0.0, 0.0, 0.0, 1.694076746471956E9, 0.0, 2023-09-07 16:52:26.471
223.0, 2287.4998793005802, -35227.9138836758, -6232.895700084651, -12802.140450732762, 1.4752151340502662, 3273.614141179817, 2784.446213775422, 16243.370323582927, 0.004, 1.016, -0.046, 192.0, 0.0, 0.0, 0.0, 0.0, 0.0, 0.0, 0.0, 0.0, 0.0, 1.694076746471964E9, 0.0, 2023-09-07 16:52:26.471
224.0, 2624.4971304532446, -35124.559417314464, -5945.832246045143, -13352.239233522325, 378.07975746151897, 3566.4890487777056, 3147.4161919851535, 16138.965325232188, 0.004, 1.016, -0.046, 192.0, 0.0, 0.0, 0.0, 0.0, 0.0, 0.0, 0.0, 0.0, 0.0, 1.694076746471971E9, 0.0, 2023-09-07 16:52:26.471
225.0, 2869.315787472223, -34578.59570724913, -5737.111656321485, -12618.699683988058, 560.6711579169223, 3804.7362929268234, 3305.3983217952637, 15943.029933336966, 0.006, 1.018, -0.038, 192.0, 0.0, 48.0, 31.0, 208.0, 254.0, 208.0, 0.0, 0.0, 0.0, 1.694076746471979E9, 0.0, 2023-09-07 16:52:26.471
226.0, 2522.014382125662, -34765.0539594953, -6005.824328163187, -12108.990503429235, 196.04715061749826, 3534.771923395625, 2963.573093840253, 16140.172319432775, 0.006, 1.018, -0.038, 192.0, 0.0, 0.0, 0.0, 0.0, 0.0, 0.0, 0.0, 0.0, 0.0, 1.694076746471987E9, 0.0, 2023-09-07 16:52:26.471
227.0, 2273.1724111047283, -35190.02767682406, -6241.612880422221, -12676.948330038587, -21.2118054880864, 3271.401318478742, 2753.511399449277, 16261.40818135836, 0.006, 1.018, -0.038, 192.0, 0.0, 0.0, 0.0, 0.0, 0.0, 0.0, 0.0, 0.0, 0.0, 1.694076746471995E9, 0.0, 2023-09-07 16:52:26.471
228.0, 2537.0571061440833, -35199.30365077301, -6018.8106916917195, -13339.92342232745, 291.9137825863102, 3504.0829782584883, 3066.4134700791205, 16167.307337201517, 0.006, 1.018, -0.038, 192.0, 0.0, 0.0, 0.0, 0.0, 0.0, 0.0, 0.0, 0.0, 0.0, 1.694076746532504E9, 0.0, 2023-09-07 16:52:26.532
229.0, 2868.287607227279, -34649.89777206156, -5742.3419645240265, -12798.072433241896, 569.7236144213217, 3810.950077885399, 3321.1115981473445, 15971.081372628376, 0.006, 1.018, -0.038, 192.0, 0.0, 0.0, 0.0, 0.0, 0.0, 0.0, 0.0, 0.0, 0.0, 1.694076746532557E9, 0.0, 2023-09-07 16:52:26.532
230.0, 2595.8421940615412, -34689.661525447555, -5945.586376856134, -12098.01579690168, 264.8234683064781, 3615.9981627462107, 3014.2892020093445, 16112.61261851938, 0.006, 1.018, -0.038, 192.0, 0.0, 0.0, 0.0, 0.0, 0.0, 0.0, 0.0, 0.0, 0.0, 1.694076746532566E9, 0.0, 2023-09-07 16:52:26.532
231.0, 2271.406623292759, -35151.403862405285, -6242.372839733701, -12560.160465259609, -34.287575994441035, 3289.4168245097194, 2733.5289399062326, 16278.574321100035, 0.006, 1.018, -0.038, 192.0, 0.0, 0.0, 0.0, 0.0, 0.0, 0.0, 0.0, 0.0, 0.0, 1.694076746532575E9, 0.0, 2023-09-07 16:52:26.532
232.0, 2461.977596518707, -35247.49401181865, -6088.078747758716, -13285.854552490062, 208.34061006791714, 3444.359117073908, 2995.334922711244, 16199.53855270607, 0.006, 1.018, -0.038, 192.0, 0.0, 0.0, 0.0, 0.0, 0.0, 0.0, 0.0, 0.0, 0.0, 1.694076746532583E9, 0.0, 2023-09-07 16:52:26.532
233.0, 2868.6899386274745, -34717.08711589422, -5742.18550231284, -12947.627955392356, 580.3853965265032, 3816.806234932689, 3364.0269475015343, 16027.161899466742, 0.006, 1.018, -0.038, 192.0, 0.0, 0.0, 0.0, 0.0, 0.0, 0.0, 0.0, 0.0, 0.0, 1.694076746532591E9, 0.0, 2023-09-07 16:52:26.532
234.0, 2680.1529741469594, -34616.750135034345, -5880.431041768914, -12110.152794140911, 334.42680054030427, 3688.7307392037796, 3143.2140640275557, 16075.240501790107, 0.006, 1.018, -0.038, 192.0, 0.0, 0.0, 0.0, 0.0, 0.0, 0.0, 0.0, 0.0, 0.0, 1.694076746532599E9, 0.0, 2023-09-07 16:52:26.532
235.0, 2325.2519756855936, -35066.91426836423, -6191.589676331244, -12416.394044923074, 6.2137849585753635, 3341.295223390487, 2819.717266525897, 16296.388661430916, 0.026000000000000002, 1.004, -0.042, 192.0, 0.0, 208.0, 31.0, 96.0, 254.0, 176.0, 0.0, 0.0, 0.0, 1.694076746532608E9, 0.0, 2023-09-07 16:52:26.532
236.0, 2431.9592037152297, -35241.57079953799, -6112.576259681733, -13164.864559753485, 170.76732763854596, 3406.7634829000813, 2977.8782102916493, 16234.206108356251, 0.026000000000000002, 1.004, -0.042, 192.0, 0.0, 0.0, 0.0, 0.0, 0.0, 0.0, 0.0, 0.0, 0.0, 1.694076746532618E9, 0.0, 2023-09-07 16:52:26.532
237.0, 2830.7143247979075, -34810.539759461855, -5773.656758505912, -13085.649977403877, 552.4904194462799, 3768.07943202012, 3339.0824006894113, 16043.702190363669, 0.026000000000000002, 1.004, -0.042, 192.0, 0.0, 0.0, 0.0, 0.0, 0.0, 0.0, 0.0, 0.0, 0.0, 1.694076746532626E9, 0.0, 2023-09-07 16:52:26.532
238.0, 2740.8826638320284, -34561.228401807355, -5831.815997578621, -12167.306204713132, 406.57823164203546, 3729.4109141124386, 3194.6677797636726, 16026.670161088725, 0.026000000000000002, 1.004, -0.042, 192.0, 0.0, 0.0, 0.0, 0.0, 0.0, 0.0, 0.0, 0.0, 0.0, 1.694076746532728E9, 0.0, 2023-09-07 16:52:26.532
239.0, 2355.7397551226327, -34998.5626338199, -6156.095106136216, -12307.384587214541, 35.606328917304154, 3380.6566453762825, 2839.319746413201, 16295.338129441516, 0.026000000000000002, 1.004, -0.042, 192.0, 0.0, 0.0, 0.0, 0.0, 0.0, 0.0, 0.0, 0.0, 0.0, 1.694076746532736E9, 0.0, 2023-09-07 16:52:26.532
240.0, 2382.8300694024647, -35241.74961349364, -6151.4682950339675, -13052.211767698738, 114.01624846652133, 3364.228113201632, 2907.7384361908958, 16255.104989421963, 0.026000000000000002, 1.004, -0.042, 192.0, 0.0, 0.0, 0.0, 0.0, 0.0, 0.0, 0.0, 0.0, 0.0, 1.694076746532744E9, 0.0, 2023-09-07 16:52:26.532
241.0, 2791.866992934584, -34898.538577382395, -5802.646971064445, -13198.749804347732, 526.718858089311, 3732.7189722918242, 3304.4371967836855, 16091.266702564562, 0.026000000000000002, 1.004, -0.042, 192.0, 0.0, 0.0, 0.0, 0.0, 0.0, 0.0, 0.0, 0.0, 0.0, 1.694076746532752E9, 0.0, 2023-09-07 16:52:26.532
242.0, 2806.0156471747932, -34529.82420084765, -5781.681034765367, -12257.070810445644, 476.11450864249576, 3778.1600687694636, 3248.8037048344263, 15992.740213005569, 0.026000000000000002, 1.004, -0.042, 192.0, 0.0, 0.0, 0.0, 0.0, 0.0, 0.0, 0.0, 0.0, 0.0, 1.694076746532761E9, 0.0, 2023-09-07 16:52:26.532
243.0, 2391.435491017758, -34940.11282206927, -6125.003829598883, -12220.07867337211, 68.9998351335329, 3413.2007853032096, 2860.129220501092, 16250.947564953276, 0.026000000000000002, 1.004, -0.042, 192.0, 0.0, 0.0, 0.0, 0.0, 0.0, 0.0, 0.0, 0.0, 0.0, 1.69407674659227E9, 0.0, 2023-09-07 16:52:26.592
244.0, 2316.043056970007, -35258.49107009066, -6216.958906288017, -12952.590042661435, 37.193302773630954, 3300.2127170816325, 2824.7240572838855, 16243.035047416097, 0.026000000000000002, 1.004, -0.042, 192.0, 0.0, 0.0, 0.0, 0.0, 0.0, 0.0, 0.0, 0.0, 0.0, 1.694076746592312E9, 0.0, 2023-09-07 16:52:26.592
245.0, 2702.571773835632, -35020.48969513055, -5885.706053460366, -13298.259770662758, 444.5538454716022, 3648.207026506308, 3217.77948353046, 16102.107298625388, 0.036000000000000004, 1.0, -0.052000000000000005, 192.0, 1.0, 32.0, 31.0, 64.0, 254.0, 96.0, 0.0, 0.0, 0.0, 1.694076746592323E9, 0.0, 2023-09-07 16:52:26.592
246.0, 2824.925222983983, -34556.065148838185, -5776.338967840549, -12413.823594310714, 500.299096143138, 3777.6459786469914, 3260.0913357843565, 15946.606212449815, 0.036000000000000004, 1.0, -0.052000000000000005, 192.0, 0.0, 0.0, 0.0, 0.0, 0.0, 0.0, 0.0, 0.0, 0.0, 1.694076746592334E9, 0.0, 2023-09-07 16:52:26.592
247.0, 2447.225445178204, -34867.156728167145, -6071.940788261984, -12158.54432088665, 120.63236482529221, 3468.2307801521756, 2897.210764552446, 16207.272256287606, 0.036000000000000004, 1.0, -0.052000000000000005, 192.0, 0.0, 0.0, 0.0, 0.0, 0.0, 0.0, 0.0, 0.0, 0.0, 1.694076746592344E9, 0.0, 2023-09-07 16:52:26.592
248.0, 2292.6407805253007, -35235.33466283496, -6229.677048883087, -12828.694323145668, 6.325543680851899, 3276.229295281088, 2789.117728366581, 16242.833881716, 0.036000000000000004, 1.0, -0.052000000000000005, 192.0, 0.0, 0.0, 0.0, 0.0, 0.0, 0.0, 0.0, 0.0, 0.0, 1.694076746592355E9, 0.0, 2023-09-07 16:52:26.592
249.0, 2635.449485236345, -35106.1862833722, -5936.019830229263, -13337.218861248359, 387.26632443265015, 3585.666845520359, 3165.3199392938545, 16128.23648789364, 0.036000000000000004, 1.0, -0.052000000000000005, 192.0, 0.0, 0.0, 0.0, 0.0, 0.0, 0.0, 0.0, 0.0, 0.0, 1.694076746592366E9, 0.0, 2023-09-07 16:52:26.592
250.0, 2866.3653572041226, -34565.296419298225, -5738.452760988804, -12558.260566980907, 551.1716665234169, 3820.2260518343514, 3314.651943999761, 15964.577014991883, 0.036000000000000004, 1.0, -0.052000000000000005, 192.0, 0.0, 0.0, 0.0, 0.0, 0.0, 0.0, 0.0, 0.0, 0.0, 1.694076746592377E9, 0.0, 2023-09-07 16:52:26.592
251.0, 2516.4487977562903, -34778.107378257206, -6008.461834008913, -12104.989541171735, 187.79935691348993, 3541.9021298768675, 2975.73244282394, 16183.400593209339, 0.036000000000000004, 1.0, -0.052000000000000005, 192.0, 0.0, 0.0, 0.0, 0.0, 0.0, 0.0, 0.0, 0.0, 0.0, 1.694076746592388E9, 0.0, 2023-09-07 16:52:26.592
252.0, 2295.7476730045883, -35180.39407496382, -6222.591545890755, -12690.538190667414, 0.5140901224720624, 3296.457624013141, 2788.2907138217347, 16282.485876379715, 0.036000000000000004, 1.0, -0.052000000000000005, 192.0, 0.0, 0.0, 0.0, 0.0, 0.0, 0.0, 0.0, 0.0, 0.0, 1.6940767465924E9, 0.0, 2023-09-07 16:52:26.592
253.0, 2591.103624237016, -35143.781917546024, -5970.687385879443, -13306.10523296657, 345.37915532340475, 3555.7155079502477, 3120.281174216411, 16178.77378210709, 0.036000000000000004, 1.0, -0.052000000000000005, 192.0, 0.0, 0.0, 0.0, 0.0, 0.0, 0.0, 0.0, 0.0, 0.0, 1.69407674659241E9, 0.0, 2023-09-07 16:52:26.592
254.0, 2900.3400087761893, -34592.00675392232, -5714.0446560436085, -12704.083347807331, 591.360103054059, 3837.9062816984992, 3340.04352570099, 15967.795666193446, 0.036000000000000004, 1.0, -0.052000000000000005, 192.0, 0.0, 0.0, 0.0, 0.0, 0.0, 0.0, 0.0, 0.0, 0.0, 1.694076746592475E9, 0.0, 2023-09-07 16:52:26.592
255.0, 2610.616697146499, -34672.83066187271, -5931.281260404738, -12065.114029063467, 269.8973142978328, 3623.5307006276494, 3038.6749552100846, 16137.311296142496, 0.04, 1.002, -0.068, 192.0, 1.0, 64.0, 31.0, 80.0, 253.0, 224.0, 0.0, 0.0, 0.0, 1.694076746592486E9, 0.0, 2023-09-07 16:52:26.592
0.0, 2309.471644100147, -35121.02784169052, -6206.341827671747, -12553.276127967374, 11.86877630576805, 3323.391476081786, 2790.190612100436, 16316.639341907425, 0.04, 1.002, -0.068, 192.0, 0.0, 0.0, 0.0, 0.0, 0.0, 0.0, 0.0, 0.0, 0.0, 1.6940767465925E9, 0.0, 2023-09-07 16:52:26.592
1.0, 2510.9055651313743, -35199.68363042875, -6040.156607646538, -13265.156837124448, 264.7340613286569, 3486.8274315389913, 3039.0325831213695, 16217.174079081307, 0.04, 1.002, -0.068, 192.0, 0.0, 0.0, 0.0, 0.0, 0.0, 0.0, 0.0, 0.0, 0.0, 1.694076746592511E9, 0.0, 2023-09-07 16:52:26.592
2.0, 2880.7375288888848, -34671.51190894984, -5729.489711462225, -12879.49983829258, 590.4436815313913, 3819.980182645343, 3336.8919297327916, 16009.88400100279, 0.04, 1.002, -0.068, 192.0, 0.0, 0.0, 0.0, 0.0, 0.0, 0.0, 0.0, 0.0, 0.0, 1.694076746652578E9, 0.0, 2023-09-07 16:52:26.652
3.0, 2659.81288669263, -34620.81815252521, -5886.30955056066, -12090.81853518707, 330.51524526062553, 3678.3148262876066, 3096.163641949134, 16102.643740492314, 0.04, 1.002, -0.068, 192.0, 0.0, 0.0, 0.0, 0.0, 0.0, 0.0, 0.0, 0.0, 0.0, 1.694076746652635E9, 0.0, 2023-09-07 16:52:26.652
4.0, 2300.016856195552, -35090.36124829784, -6206.766510816397, -12462.349231523185, -2.6822093346368474, 3320.865728958336, 2780.31114105119, 16295.762812586167, 0.04, 1.002, -0.068, 192.0, 0.0, 0.0, 0.0, 0.0, 0.0, 0.0, 0.0, 0.0, 0.0, 1.694076746652649E9, 0.0, 2023-09-07 16:52:26.652
5.0, 2446.465485866724, -35224.09173537394, -6089.732776848409, -13195.821725824086, 198.7740634410457, 3420.53215748455, 2965.271826418856, 16219.476308760204, 0.04, 1.002, -0.068, 192.0, 0.0, 0.0, 0.0, 0.0, 0.0, 0.0, 0.0, 0.0, 0.0, 1.694076746652661E9, 0.0, 2023-09-07 16:52:26.652
6.0, 2844.840627293662, -34758.61665709218, -5751.2603105616945, -13038.53250009209, 572.3834720115033, 3778.495344936293, 3292.590772222373, 16021.350445908362, 0.04, 1.002, -0.068, 192.0, 0.0, 0.0, 0.0, 0.0, 0.0, 0.0, 0.0, 0.0, 0.0, 1.694076746652671E9, 0.0, 2023-09-07 16:52:26.652
7.0, 2709.612573339054, -34573.52186125778, -5846.992832063775, -12150.45298939383, 381.5666295965469, 3701.337123076573, 3091.8944587581705, 16016.209544683641, 0.04, 1.002, -0.068, 192.0, 0.0, 0.0, 0.0, 0.0, 0.0, 0.0, 0.0, 0.0, 0.0, 1.694076746652683E9, 0.0, 2023-09-07 16:52:26.652
8.0, 2316.400684881292, -35031.576160380384, -6183.967731471984, -12352.15513135852, 7.107854736787646, 3339.685897789705, 2744.4365912004223, 16261.810512758555, 0.04, 1.002, -0.068, 192.0, 0.0, 0.0, 0.0, 0.0, 0.0, 0.0, 0.0, 0.0, 0.0, 1.694076746652696E9, 0.0, 2023-09-07 16:52:26.652
9.0, 2365.2839500050486, -35255.719453778205, -6158.039707903828, -13104.02311134614, 112.27281239900738, 3350.2806246615205, 2876.088366042181, 16218.470480259715, 0.038, 1.012, -0.074, 192.0, 1.0, 48.0, 31.0, 160.0, 253.0, 176.0, 0.0, 0.0, 0.0, 1.694076746652708E9, 0.0, 2023-09-07 16:52:26.652
10.0, 2814.3081443677124, -34846.43666105708, -5769.499334037225, -13157.935518972341, 558.0113003267409, 3758.691699348891, 3325.2690226160316, 16070.926615110233, 0.038, 1.012, -0.074, 192.0, 0.0, 0.0, 0.0, 0.0, 0.0, 0.0, 0.0, 0.0, 0.0, 1.694076746652719E9, 0.0, 2023-09-07 16:52:26.652
11.0, 2796.1138243810924, -34517.10605825258, -5768.560560770102, -12216.36828379253, 474.5275347861689, 3779.5011734367818, 3245.0486117659348, 16011.135698692287, 0.038, 1.012, -0.074, 192.0, 0.0, 0.0, 0.0, 0.0, 0.0, 0.0, 0.0, 0.0, 0.0, 1.694076746652727E9, 0.0, 2023-09-07 16:52:26.652
12.0, 2385.4899269926464, -34940.11282206927, -6113.358570737669, -12242.408066082962, 71.07854736787645, 3418.274631294564, 2855.122429743103, 16277.613196088458, 0.038, 1.012, -0.074, 192.0, 0.0, 0.0, 0.0, 0.0, 0.0, 0.0, 0.0, 0.0, 0.0, 1.694076746652737E9, 0.0, 2023-09-07 16:52:26.652
13.0, 2360.2548075026048, -35214.256967813606, -6159.447867804512, -12957.418019463781, 96.09014941336507, 3357.8802177763246, 2880.1563835330467, 16264.60448081547, 0.038, 1.012, -0.074, 192.0, 0.0, 0.0, 0.0, 0.0, 0.0, 0.0, 0.0, 0.0, 0.0, 1.694076746652835E9, 0.0, 2023-09-07 16:52:26.652
14.0, 2752.63968141552, -34940.29163602491, -5824.909308541931, -13241.084008346083, 505.3505903900374, 3703.460538799827, 3263.3099869859207, 16109.32691208445, 0.038, 1.012, -0.074, 192.0, 0.0, 0.0, 0.0, 0.0, 0.0, 0.0, 0.0, 0.0, 0.0, 1.694076746652848E9, 0.0, 2023-09-07 16:52:26.652
15.0, 2823.7629322723074, -34518.20129373089, -5756.334156553049, -12347.81889293419, 507.67517181338934, 3800.0200748467537, 3262.4159172077084, 15984.11243964582, 0.038, 1.012, -0.074, 192.0, 0.0, 0.0, 0.0, 0.0, 0.0, 0.0, 0.0, 0.0, 0.0, 1.694076746652861E9, 0.0, 2023-09-07 16:52:26.652
16.0, 2446.621948077911, -34854.84091697227, -6059.088535200183, -12163.796980833647, 131.13768471928654, 3484.033463482078, 2908.274878057823, 16249.897032963878, 0.038, 1.012, -0.074, 192.0, 0.0, 0.0, 0.0, 0.0, 0.0, 0.0, 0.0, 0.0, 0.0, 1.694076746652874E9, 0.0, 2023-09-07 16:52:26.652
17.0, 2334.46089440118, -35186.63021166685, -6180.279693636858, -12834.595183681868, 62.85310540832346, 3343.999784469579, 2830.423752119989, 16277.948472255288, 0.038, 1.012, -0.074, 192.0, 0.0, 0.0, 0.0, 0.0, 0.0, 0.0, 0.0, 0.0, 0.0, 1.694076746712008E9, 0.0, 2023-09-07 16:52:26.712
18.0, 2695.687436543398, -35019.282700929965, -5871.177419564417, -13291.733061281808, 454.32155779857135, 3659.6734714118807, 3203.653181034706, 16146.855491024911, 0.038, 1.012, -0.074, 192.0, 0.0, 0.0, 0.0, 0.0, 0.0, 0.0, 0.0, 0.0, 0.0, 1.694076746712035E9, 0.0, 2023-09-07 16:52:26.712
19.0, 2876.2448282533683, -34516.88254080803, -5713.709379876778, -12479.47066777595, 566.8178876421318, 3838.353316587605, 3310.6286299978055, 15983.598349523349, 0.05, 1.024, -0.066, 192.0, 1.0, 144.0, 32.0, 0.0, 253.0, 240.0, 0.0, 0.0, 0.0, 1.694076746712043E9, 0.0, 2023-09-07 16:52:26.712
20.0, 2484.329340974014, -34790.37848596316, -6025.3821045615805, -12120.389893101441, 156.9539495651662, 3520.3550482219516, 2939.2320441284232, 16206.199372553752, 0.05, 1.024, -0.066, 192.0, 0.0, 0.0, 0.0, 0.0, 0.0, 0.0, 0.0, 0.0, 0.0, 1.69407674671205E9, 0.0, 2023-09-07 16:52:26.712
21.0, 2287.8798589563203, -35181.51166218658, -6224.759665102919, -12737.23098483455, 5.1632529691759315, 3301.486766515585, 2770.7445944243186, 16283.536408369115, 0.05, 1.024, -0.066, 192.0, 0.0, 0.0, 0.0, 0.0, 0.0, 0.0, 0.0, 0.0, 0.0, 1.694076746712057E9, 0.0, 2023-09-07 16:52:26.712
22.0, 2619.2891739951583, -35104.33108858241, -5942.971222754863, -13307.558096356166, 384.31589416454966, 3592.148851412398, 3127.366677208743, 16186.976872322188, 0.05, 1.024, -0.066, 192.0, 0.0, 0.0, 0.0, 0.0, 0.0, 0.0, 0.0, 0.0, 0.0, 1.694076746712064E9, 0.0, 2023-09-07 16:52:26.712
23.0, 2873.6743776410076, -34579.93681191645, -5730.003801584698, -12651.020306470431, 573.9257423789195, 3824.294069325217, 3310.136891619789, 15976.758715720025, 0.05, 1.024, -0.066, 192.0, 0.0, 0.0, 0.0, 0.0, 0.0, 0.0, 0.0, 0.0, 0.0, 1.694076746712071E9, 0.0, 2023-09-07 16:52:26.712
24.0, 2544.589644025522, -34723.859694464176, -5983.89726685253, -12093.992482899725, 223.85272071990022, 3572.188743613809, 2996.944248312026, 16154.902119028822, 0.05, 1.024, -0.066, 192.0, 0.0, 0.0, 0.0, 0.0, 0.0, 0.0, 0.0, 0.0, 0.0, 1.694076746712078E9, 0.0, 2023-09-07 16:52:26.712
25.0, 2306.4541585986804, -35122.547760313486, -6205.335999171258, -12593.285750542373, 17.523767652960736, 3318.272926601521, 2778.970036383872, 16305.396414446404, 0.05, 1.024, -0.066, 192.0, 0.0, 0.0, 0.0, 0.0, 0.0, 0.0, 0.0, 0.0, 0.0, 1.694076746712084E9, 0.0, 2023-09-07 16:52:26.712
26.0, 2562.582798312044, -35141.211466933666, -5988.837002377153, -13253.489226518777, 322.96035563473174, 3528.088751803488, 3053.0918303837575, 16210.625017955903, 0.05, 1.024, -0.066, 192.0, 0.0, 0.0, 0.0, 0.0, 0.0, 0.0, 0.0, 0.0, 0.0, 1.694076746712091E9, 0.0, 2023-09-07 16:52:26.712
27.0, 2887.443052225477, -34626.96488225042, -5712.591792654013, -12803.123927488796, 603.5641555266566, 3829.6361362500356, 3349.7218310501376, 16004.385471866784, 0.05, 1.024, -0.066, 192.0, 0.0, 0.0, 0.0, 0.0, 0.0, 0.0, 0.0, 0.0, 0.0, 1.694076746712098E9, 0.0, 2023-09-07 16:52:26.712
28.0, 2623.692467652854, -34644.86862955912, -5910.382379339026, -12084.53769499513, 304.83309088147774, 3639.892177568934, 3085.2783423993997, 16106.823516705457, 0.05, 1.02, -0.058, 192.0, 1.0, 144.0, 31.0, 224.0, 254.0, 48.0, 0.0, 0.0, 0.0, 1.694076746712105E9, 0.0, 2023-09-07 16:52:26.712
29.0, 2288.081024656418, -35106.78978047249, -6214.679028353576, -12496.56975228426, -3.129244223742989, 3304.4595485281407, 2779.618236973076, 16297.126268997941, 0.05, 1.02, -0.058, 192.0, 0.0, 0.0, 0.0, 0.0, 0.0, 0.0, 0.0, 0.0, 0.0, 1.694076746712138E9, 0.0, 2023-09-07 16:52:26.712
30.0, 2447.0913347114724, -35233.747688978634, -6088.771651836831, -13234.400836753946, 211.9839444141322, 3433.7420384576367, 2984.404919672599, 16230.11573912093, 0.05, 1.02, -0.058, 192.0, 0.0, 0.0, 0.0, 0.0, 0.0, 0.0, 0.0, 0.0, 0.0, 1.694076746712145E9, 0.0, 2023-09-07 16:52:26.712
31.0, 2844.5500546157427, -34741.20464816149, -5754.009575129697, -12995.684205971267, 576.5632482246457, 3791.36994974255, 3335.7519907655706, 16035.990838526588, 0.05, 1.02, -0.058, 192.0, 0.0, 0.0, 0.0, 0.0, 0.0, 0.0, 0.0, 0.0, 0.0, 1.694076746712152E9, 0.0, 2023-09-07 16:52:26.712
32.0, 2679.1918491353813, -34605.79778025124, -5871.624454453523, -12138.383047387964, 362.3441293649828, 3675.274989041685, 3142.9681948385473, 16053.983992813111, 0.05, 1.02, -0.058, 192.0, 0.0, 0.0, 0.0, 0.0, 0.0, 0.0, 0.0, 0.0, 0.0, 1.694076746773294E9, 0.0, 2023-09-07 16:52:26.773
33.0, 2314.2549174135825, -35053.547925179955, -6184.593580316732, -12390.376614377095, 18.976631042555695, 3331.6616215302497, 2805.680371007964, 16286.88917003741, 0.05, 1.02, -0.058, 192.0, 0.0, 0.0, 0.0, 0.0, 0.0, 0.0, 0.0, 0.0, 0.0, 1.694076746773322E9, 0.0, 2023-09-07 16:52:26.773
34.0, 2405.3382760689587, -35240.341453592955, -6120.421721985545, -13130.778149459142, 164.46413570214938, 3391.2737239925536, 2959.438021116021, 16248.578280041014, 0.05, 1.02, -0.058, 192.0, 0.0, 0.0, 0.0, 0.0, 0.0, 0.0, 0.0, 0.0, 0.0, 1.69407674677333E9, 0.0, 2023-09-07 16:52:26.773
35.0, 2818.778493258774, -34830.96925389401, -5773.992034672741, -13122.97739064424, 562.7945736401765, 3756.009490014254, 3324.129083648811, 16062.388248728306, 0.05, 1.02, -0.058, 192.0, 0.0, 0.0, 0.0, 0.0, 0.0, 0.0, 0.0, 0.0, 0.0, 1.694076746773337E9, 0.0, 2023-09-07 16:52:26.773
36.0, 2737.1499225079924, -34570.70554145641, -5825.177529475395, -12209.908629644946, 416.1447782689069, 3725.7675797662237, 3198.556983298896, 16006.195963167664, 0.05, 1.02, -0.058, 192.0, 0.0, 0.0, 0.0, 0.0, 0.0, 0.0, 0.0, 0.0, 0.0, 1.694076746773345E9, 0.0, 2023-09-07 16:52:26.773
37.0, 2349.3024527195043, -34993.04175293943, -6146.416800787068, -12295.091127764123, 41.37307898677337, 3386.646912890305, 2847.9028162840386, 16276.808533288067, 0.05, 1.02, -0.058, 192.0, 0.0, 0.0, 0.0, 0.0, 0.0, 0.0, 0.0, 0.0, 0.0, 1.694076746773352E9, 0.0, 2023-09-07 16:52:26.773
38.0, 2352.5434556655237, -35251.36086360942, -6166.779239985853, -13025.076749929995, 104.00266695054377, 3345.452647859174, 2891.8239941387174, 16250.20995738625, 0.06, 1.02, -0.036000000000000004, 192.0, 1.0, 224.0, 31.0, 224.0, 254.0, 224.0, 0.0, 0.0, 0.0, 1.694076746773359E9, 0.0, 2023-09-07 16:52:26.773
39.0, 2748.2587395022797, -34945.25372329399, -5826.988020776274, -13240.078179845594, 506.490529357258, 3710.3225243476063, 3282.487783728574, 16095.111202610875, 0.06, 1.02, -0.036000000000000004, 192.0, 0.0, 0.0, 0.0, 0.0, 0.0, 0.0, 0.0, 0.0, 0.0, 1.694076746773367E9, 0.0, 2023-09-07 16:52:26.773
40.0, 2786.1002428651145, -34553.15942205899, -5785.212610389306, -12314.067758806677, 472.784098718655, 3773.8014786006784, 3244.914501299203, 15973.763581963014, 0.06, 1.02, -0.036000000000000004, 192.0, 0.0, 0.0, 0.0, 0.0, 0.0, 0.0, 0.0, 0.0, 0.0, 1.694076746773374E9, 0.0, 2023-09-07 16:52:26.773
41.0, 2386.1604793263054, -34927.68525215212, -6112.620963170643, -12213.283743057698, 73.09020436885409, 3432.6244512348717, 2869.315787472223, 16235.435454301294, 0.06, 1.02, -0.036000000000000004, 192.0, 0.0, 0.0, 0.0, 0.0, 0.0, 0.0, 0.0, 0.0, 0.0, 1.694076746773381E9, 0.0, 2023-09-07 16:52:26.773
42.0, 2309.2928301445045, -35237.99452042515, -6201.759720058409, -12908.60180957339, 38.66851790768122, 3320.3069353469537, 2837.9115865125164, 16252.623945787425, 0.06, 1.02, -0.036000000000000004, 192.0, 0.0, 0.0, 0.0, 0.0, 0.0, 0.0, 0.0, 0.0, 0.0, 1.694076746773389E9, 0.0, 2023-09-07 16:52:26.773
43.0, 2703.0188087247384, -35024.736526577064, -5858.615739180535, -13292.493020593289, 466.68207248235615, 3675.9455413753444, 3249.809533334915, 16130.873993739368, 0.06, 1.02, -0.036000000000000004, 192.0, 0.0, 0.0, 0.0, 0.0, 0.0, 0.0, 0.0, 0.0, 0.0, 1.694076746773396E9, 0.0, 2023-09-07 16:52:26.773
44.0, 2832.413057376511, -34555.37224476007, -5748.511045993691, -12440.51157719035, 525.6236226110009, 3803.886926637522, 3292.9260483892026, 15957.938546888656, 0.06, 1.02, -0.036000000000000004, 192.0, 0.0, 0.0, 0.0, 0.0, 0.0, 0.0, 0.0, 0.0, 0.0, 1.694076746773403E9, 0.0, 2023-09-07 16:52:26.773
45.0, 2449.147695201361, -34845.2743703454, -6052.159494419038, -12142.674582323383, 137.6420423557809, 3490.314303674019, 2926.871529444639, 16196.923398604798, 0.06, 1.02, -0.036000000000000004, 192.0, 0.0, 0.0, 0.0, 0.0, 0.0, 0.0, 0.0, 0.0, 0.0, 1.694076746773481E9, 0.0, 2023-09-07 16:52:26.773
46.0, 2295.3900450933033, -35205.182159564756, -6207.124138727682, -12771.585616062357, 21.61413688828193, 3316.9541736786573, 2818.9796589588714, 16285.123382225442, 0.06, 1.02, -0.036000000000000004, 192.0, 0.0, 0.0, 0.0, 0.0, 0.0, 0.0, 0.0, 0.0, 0.0, 1.694076746773488E9, 0.0, 2023-09-07 16:52:26.773
47.0, 2635.136560813971, -35101.15714086976, -5914.986838696818, -13311.067320235648, 402.2866967066165, 3616.8475290355123, 3193.1478611407115, 16184.317014732005, 0.06, 1.02, -0.036000000000000004, 192.0, 0.0, 0.0, 0.0, 0.0, 0.0, 0.0, 0.0, 0.0, 0.0, 1.694076746831965E9, 0.0, 2023-09-07 16:52:26.831
48.0, 2872.601493907153, -34563.396521019524, -5710.468376930759, -12576.432535223072, 576.4067860134585, 3837.0569154091977, 3353.074592718434, 15992.851971727845, 0.048, 1.004, -0.024, 192.0, 1.0, 128.0, 31.0, 96.0, 255.0, 64.0, 0.0, 0.0, 0.0, 1.694076746832003E9, 0.0, 2023-09-07 16:52:26.832
49.0, 2520.40505652488, -34756.94027625803, -5985.216019775394, -12083.53186649464, 205.65840073328027, 3565.9749586552334, 3001.4816524364537, 16177.365622206406, 0.048, 1.004, -0.024, 192.0, 0.0, 0.0, 0.0, 0.0, 0.0, 0.0, 0.0, 0.0, 0.0, 1.694076746832015E9, 0.0, 2023-09-07 16:52:26.832
50.0, 2282.78366122051, -35169.642885880814, -6214.053179508827, -12643.152492422163, 0.8717180337569754, 3312.394417809775, 2804.2722111072794, 16297.349786442493, 0.048, 1.004, -0.024, 192.0, 0.0, 0.0, 0.0, 0.0, 0.0, 0.0, 0.0, 0.0, 0.0, 1.694076746832026E9, 0.0, 2023-09-07 16:52:26.832
51.0, 2577.737281052742, -35146.017091991554, -5960.919673552475, -13282.501790821767, 345.02152741211984, 3566.6231592444374, 3133.5357586784075, 16214.335407535484, 0.048, 1.004, -0.024, 192.0, 0.0, 0.0, 0.0, 0.0, 0.0, 0.0, 0.0, 0.0, 0.0, 1.694076746832036E9, 0.0, 2023-09-07 16:52:26.832
52.0, 2895.3555697626557, -34600.27689937078, -5692.7434435777, -12731.620696976268, 606.2016613723829, 3856.9276162299657, 3369.4360696597187, 16011.69449230367, 0.048, 1.004, -0.024, 192.0, 0.0, 0.0, 0.0, 0.0, 0.0, 0.0, 0.0, 0.0, 0.0, 1.694076746832046E9, 0.0, 2023-09-07 16:52:26.832
53.0, 2598.1444237404376, -34671.131929294104, -5919.993629454807, -12061.157770294878, 278.1004045129305, 3635.8465118225236, 3052.9353681725706, 16129.711703027691, 0.048, 1.004, -0.024, 192.0, 0.0, 0.0, 0.0, 0.0, 0.0, 0.0, 0.0, 0.0, 0.0, 1.694076746832056E9, 0.0, 2023-09-07 16:52:26.832
54.0, 2282.02370190903, -35130.169705172746, -6209.5157753844, -12526.834014276745, -6.750226825502733, 3309.6451532417723, 2776.8242689161625, 16295.516943397159, 0.048, 1.004, -0.024, 192.0, 0.0, 0.0, 0.0, 0.0, 0.0, 0.0, 0.0, 0.0, 0.0, 1.694076746832066E9, 0.0, 2023-09-07 16:52:26.832
55.0, 2502.858937127464, -35199.84009263993, -6021.00116264834, -13231.517461719211, 273.56300038850316, 3499.3667601784186, 3076.024720194903, 16233.110872877942, 0.048, 1.004, -0.024, 192.0, 0.0, 0.0, 0.0, 0.0, 0.0, 0.0, 0.0, 0.0, 0.0, 1.694076746832076E9, 0.0, 2023-09-07 16:52:26.832
56.0, 2875.060185797237, -34686.97931611291, -5703.472280916248, -12896.464812334158, 609.5767747851343, 3843.3601073455943, 3390.804337358992, 16044.216280486142, 0.048, 1.004, -0.024, 192.0, 0.0, 0.0, 0.0, 0.0, 0.0, 0.0, 0.0, 0.0, 0.0, 1.694076746832086E9, 0.0, 2023-09-07 16:52:26.832
57.0, 2669.1559158749483, -34603.45084708343, -5856.805247879654, -12076.446363502308, 351.88351295989906, 3701.582992265581, 3148.600834441285, 16090.931426397734, 0.048, 1.004, -0.024, 192.0, 0.0, 0.0, 0.0, 0.0, 0.0, 0.0, 0.0, 0.0, 0.0, 1.694076746832097E9, 0.0, 2023-09-07 16:52:26.832
58.0, 2314.6125453248674, -35060.14168979427, -6172.41187958859, -12397.26095166933, 15.601517629804329, 3356.583816597917, 2824.32172588369, 16310.716129626768, 0.04, 1.002, -0.014, 192.0, 1.0, 64.0, 31.0, 80.0, 255.0, 144.0, 0.0, 0.0, 0.0, 1.694076746832107E9, 0.0, 2023-09-07 16:52:26.832
59.0, 2423.689058266766, -35235.78169772407, -6096.304189718269, -13158.382553861447, 188.78283366952346, 3424.711933697693, 2980.336902181733, 16242.789178227089, 0.04, 1.002, -0.014, 192.0, 0.0, 0.0, 0.0, 0.0, 0.0, 0.0, 0.0, 0.0, 0.0, 1.694076746832118E9, 0.0, 2023-09-07 16:52:26.832
60.0, 2827.763894529807, -34799.29683200084, -5753.361374540494, -13068.39443068438, 572.6293412005116, 3791.8393363761115, 3346.257310659565, 16058.074362048432, 0.04, 1.002, -0.014, 192.0, 0.0, 0.0, 0.0, 0.0, 0.0, 0.0, 0.0, 0.0, 0.0, 1.694076746832128E9, 0.0, 2023-09-07 16:52:26.832
61.0, 2725.906995046973, -34571.577259490165, -5821.19891896235, -12148.933070770869, 414.13312126792925, 3738.396315383472, 3191.1809076286445, 16030.31349543494, 0.04, 1.002, -0.014, 192.0, 0.0, 0.0, 0.0, 0.0, 0.0, 0.0, 0.0, 0.0, 0.0, 1.694076746832164E9, 0.0, 2023-09-07 16:52:26.832
62.0, 2331.4881123886244, -35021.62963409777, -6155.648071247109, -12312.994875072824, 35.15929402819801, 3380.2319622316318, 2832.3683538876003, 16280.854199034477, 0.04, 1.002, -0.014, 192.0, 0.0, 0.0, 0.0, 0.0, 0.0, 0.0, 0.0, 0.0, 0.0, 1.694076746892306E9, 0.0, 2023-09-07 16:52:26.892
63.0, 2374.202296042716, -35246.622293784894, -6135.240928559414, -13057.48677939019, 131.16003646374185, 3384.769366356059, 2923.474064287432, 16252.869814976433, 0.04, 1.002, -0.014, 192.0, 0.0, 0.0, 0.0, 0.0, 0.0, 0.0, 0.0, 0.0, 0.0, 1.694076746892358E9, 0.0, 2023-09-07 16:52:26.892
64.0, 2789.117728366581, -34888.81556854434, -5780.742261498244, -13183.058879740105, 547.7518496217549, 3763.0949930065863, 3321.9162609477357, 16102.017891647565, 0.04, 1.002, -0.014, 192.0, 0.0, 0.0, 0.0, 0.0, 0.0, 0.0, 0.0, 0.0, 0.0, 1.694076746892369E9, 0.0, 2023-09-07 16:52:26.892
65.0, 2795.0856441361484, -34519.4976949093, -5764.38078455696, -12225.51014727475, 485.61400003600124, 3797.7625486567676, 3249.876588568281, 16007.000625968056, 0.04, 1.002, -0.014, 192.0, 0.0, 0.0, 0.0, 0.0, 0.0, 0.0, 0.0, 0.0, 0.0, 1.694076746892378E9, 0.0, 2023-09-07 16:52:26.892
66.0, 2371.073051818973, -34940.15752555818, -6113.179756782027, -12212.456728512852, 73.98427414706637, 3421.225061562665, 2864.286644969779, 16253.182739398808, 0.04, 1.002, -0.014, 192.0, 0.0, 0.0, 0.0, 0.0, 0.0, 0.0, 0.0, 0.0, 0.0, 1.694076746892385E9, 0.0, 2023-09-07 16:52:26.892
67.0, 2330.4152286547696, -35230.97607266618, -6171.763678999386, -12929.858318550387, 78.96871316059985, 3343.4633426026517, 2863.6160926361194, 16265.40914361586, 0.04, 1.002, -0.014, 192.0, 0.0, 0.0, 0.0, 0.0, 0.0, 0.0, 0.0, 0.0, 0.0, 1.694076746892392E9, 0.0, 2023-09-07 16:52:26.892
68.0, 2727.248099714291, -34980.23420336655, -5829.670230110912, -13260.820598700118, 496.8345757525654, 3710.4789865587936, 3265.9474928316467, 16138.451235109716, 0.04, 1.006, -0.016, 192.0, 1.0, 64.0, 31.0, 112.0, 255.0, 128.0, 0.0, 0.0, 0.0, 1.694076746892399E9, 0.0, 2023-09-07 16:52:26.892
69.0, 2826.5569003292208, -34524.97387230085, -5743.995993613719, -12357.20662560542, 524.8860150439757, 3821.5001012683038, 3283.8959436292585, 15987.532256547483, 0.04, 1.006, -0.016, 192.0, 0.0, 0.0, 0.0, 0.0, 0.0, 0.0, 0.0, 0.0, 0.0, 1.694076746892407E9, 0.0, 2023-09-07 16:52:26.892
70.0, 2414.52484304009, -34878.824338772814, -6079.652140099066, -12147.055524236623, 109.05416119744316, 3473.6846057992707, 2890.035854582293, 16226.271239074618, 0.04, 1.006, -0.016, 192.0, 0.0, 0.0, 0.0, 0.0, 0.0, 0.0, 0.0, 0.0, 0.0, 1.694076746892414E9, 0.0, 2023-09-07 16:52:26.892
71.0, 2266.4892395125917, -35240.02852917058, -6233.834473351774, -12829.141358034774, 2.212822701075399, 3294.200097823155, 2788.6259899885645, 16265.65501280487, 0.04, 1.006, -0.016, 192.0, 0.0, 0.0, 0.0, 0.0, 0.0, 0.0, 0.0, 0.0, 0.0, 1.694076746892421E9, 0.0, 2023-09-07 16:52:26.892
72.0, 2628.4086857329235, -35094.04928613297, -5924.709847534878, -13335.765997858764, 400.2750397056389, 3614.4558923787945, 3174.3500440537982, 16142.496900856127, 0.04, 1.006, -0.016, 192.0, 0.0, 0.0, 0.0, 0.0, 0.0, 0.0, 0.0, 0.0, 0.0, 1.694076746892428E9, 0.0, 2023-09-07 16:52:26.892
73.0, 2844.5947581046535, -34560.669608195974, -5739.257423789194, -12535.148863214119, 548.8023816111543, 3831.2454618508177, 3304.168975850222, 15973.383602307273, 0.04, 1.006, -0.016, 192.0, 0.0, 0.0, 0.0, 0.0, 0.0, 0.0, 0.0, 0.0, 0.0, 1.694076746892435E9, 0.0, 2023-09-07 16:52:26.892
74.0, 2479.434308938302, -34789.52911967386, -6024.28686908327, -12102.150869625912, 169.71679564914652, 3531.240347771686, 2942.2942331188005, 16177.9691193067, 0.04, 1.006, -0.016, 192.0, 0.0, 0.0, 0.0, 0.0, 0.0, 0.0, 0.0, 0.0, 0.0, 1.694076746892442E9, 0.0, 2023-09-07 16:52:26.892
75.0, 2265.371652289826, -35189.82651112396, -6234.348563474246, -12697.109603537274, -11.242927461019452, 3287.2040018086436, 2759.501666963299, 16272.293480908094, 0.04, 1.006, -0.016, 192.0, 0.0, 0.0, 0.0, 0.0, 0.0, 0.0, 0.0, 0.0, 0.0, 1.694076746892449E9, 0.0, 2023-09-07 16:52:26.892
76.0, 2574.65274031791, -35143.46899312365, -5970.128592268061, -13312.743701069798, 343.7474779781673, 3561.3928510418955, 3106.2889821873882, 16165.698011600736, 0.04, 1.006, -0.016, 192.0, 0.0, 0.0, 0.0, 0.0, 0.0, 0.0, 0.0, 0.0, 0.0, 1.694076746892456E9, 0.0, 2023-09-07 16:52:26.892
77.0, 2862.5432089022647, -34600.65687902652, -5729.623821928957, -12695.187353514119, 573.9704458678301, 3831.3795723175494, 3310.3827608087972, 15969.047363882944, 0.04, 1.006, -0.016, 192.0, 0.0, 0.0, 0.0, 0.0, 0.0, 0.0, 0.0, 0.0, 0.0, 1.694076746953143E9, 0.0, 2023-09-07 16:52:26.953
78.0, 2563.2533506457034, -34708.83932219021, -5961.299653208215, -12071.90895937788, 242.31526163998387, 3598.653209048892, 2995.2902192223337, 16135.478453097161, 0.052000000000000005, 1.004, -0.032, 192.0, 1.0, 160.0, 31.0, 96.0, 255.0, 0.0, 0.0, 0.0, 0.0, 1.694076746953172E9, 0.0, 2023-09-07 16:52:26.953
79.0, 2278.2686088405385, -35151.85089729439, -6224.625554636187, -12563.9155583281, -21.994116544022148, 3300.995028137568, 2756.9759198398497, 16297.573303887048, 0.052000000000000005, 1.004, -0.032, 192.0, 0.0, 0.0, 0.0, 0.0, 0.0, 0.0, 0.0, 0.0, 0.0, 1.694076746953181E9, 0.0, 2023-09-07 16:52:26.953
80.0, 2497.583925436011, -35206.81383690999, -6043.15174140355, -13279.260787875748, 263.9070467838105, 3484.3016844155413, 3033.9363853855593, 16198.73388990568, 0.052000000000000005, 1.004, -0.032, 192.0, 0.0, 0.0, 0.0, 0.0, 0.0, 0.0, 0.0, 0.0, 0.0, 1.69407674695319E9, 0.0, 2023-09-07 16:52:26.953
81.0, 2864.8454385811615, -34669.321437993225, -5733.110694063985, -12870.35797481036, 587.5379547522015, 3819.689609967424, 3337.1377989218, 15996.897637474256, 0.052000000000000005, 1.004, -0.032, 192.0, 0.0, 0.0, 0.0, 0.0, 0.0, 0.0, 0.0, 0.0, 0.0, 1.694076746953198E9, 0.0, 2023-09-07 16:52:26.953
82.0, 2647.8994068979514, -34619.16412343551, -5891.383396552014, -12073.361822767476, 325.46375101372615, 3666.311939515107, 3085.65832205514, 16085.723469939647, 0.052000000000000005, 1.004, -0.032, 192.0, 0.0, 0.0, 0.0, 0.0, 0.0, 0.0, 0.0, 0.0, 0.0, 1.694076746953207E9, 0.0, 2023-09-07 16:52:26.953
83.0, 2317.048885470496, -35065.3272945079, -6182.984254715951, -12429.179242751508, 19.289555464929997, 3339.5294355785177, 2797.0525976482154, 16302.311873711573, 0.052000000000000005, 1.004, -0.032, 192.0, 0.0, 0.0, 0.0, 0.0, 0.0, 0.0, 0.0, 0.0, 0.0, 1.694076746953217E9, 0.0, 2023-09-07 16:52:26.953
84.0, 2463.072831997017, -35204.757476420105, -6071.113773717138, -13178.141495959939, 220.29879335150642, 3441.8110182060027, 2980.694530093018, 16215.609456969436, 0.052000000000000005, 1.004, -0.032, 192.0, 0.0, 0.0, 0.0, 0.0, 0.0, 0.0, 0.0, 0.0, 0.0, 1.694076746953226E9, 0.0, 2023-09-07 16:52:26.953
85.0, 2871.841534595673, -34725.33490959822, -5723.052409059097, -13000.132203117873, 604.8158532161538, 3827.1327408710413, 3337.584833810906, 16052.195853256686, 0.052000000000000005, 1.004, -0.032, 192.0, 0.0, 0.0, 0.0, 0.0, 0.0, 0.0, 0.0, 0.0, 0.0, 1.694076746953235E9, 0.0, 2023-09-07 16:52:26.953
86.0, 2730.153826493481, -34541.17888703095, -5821.7577125737325, -12103.491974293229, 409.1039787654852, 3744.3642311530393, 3147.9302821076253, 16075.665184934758, 0.052000000000000005, 1.004, -0.032, 192.0, 0.0, 0.0, 0.0, 0.0, 0.0, 0.0, 0.0, 0.0, 0.0, 1.694076746953244E9, 0.0, 2023-09-07 16:52:26.953
87.0, 2334.5503013790017, -35006.430447868166, -6163.69469925102, -12329.132834569555, 33.34880272731814, 3367.133839980822, 2791.1740888564696, 16304.837620835022, 0.052000000000000005, 1.004, -0.032, 192.0, 0.0, 0.0, 0.0, 0.0, 0.0, 0.0, 0.0, 0.0, 0.0, 1.694076746953253E9, 0.0, 2023-09-07 16:52:26.953
88.0, 2381.086633334951, -35238.17333438079, -6143.578129241244, -13099.820983388541, 133.8869492872893, 3370.6207121158495, 2895.28851452929, 16232.507375777648, 0.048, 1.01, -0.04, 192.0, 1.0, 128.0, 31.0, 144.0, 254.0, 192.0, 0.0, 0.0, 0.0, 1.694076746953262E9, 0.0, 2023-09-07 16:52:26.953
89.0, 2792.4704900348775, -34853.14218439367, -5792.05224419263, -13169.424315622367, 540.5098844182354, 3744.878321275511, 3272.02716732349, 16057.448513203683, 0.048, 1.01, -0.04, 192.0, 0.0, 0.0, 0.0, 0.0, 0.0, 0.0, 0.0, 0.0, 0.0, 1.694076746953272E9, 0.0, 2023-09-07 16:52:26.953
90.0, 2747.0070418127825, -34543.16819228747, -5817.332067171582, -12236.998943924778, 434.45085697780337, 3741.8831875185, 3168.203314328589, 15983.620701267804, 0.048, 1.01, -0.04, 192.0, 0.0, 0.0, 0.0, 0.0, 0.0, 0.0, 0.0, 0.0, 0.0, 1.694076746953281E9, 0.0, 2023-09-07 16:52:26.953
91.0, 2355.918569078275, -34956.94368564412, -6139.107780350182, -12269.788953040714, 55.946416371633575, 3399.76738688557, 2801.3664843280894, 16256.69196327829, 0.048, 1.01, -0.04, 192.0, 0.0, 0.0, 0.0, 0.0, 0.0, 0.0, 0.0, 0.0, 0.0, 1.69407674695329E9, 0.0, 2023-09-07 16:52:26.953
92.0, 2334.952632779197, -35233.99355816765, -6178.960940713995, -12999.439299039757, 84.1543178742311, 3334.5673483094392, 2813.6822955229636, 16243.437378816294, 0.048, 1.01, -0.04, 192.0, 0.0, 0.0, 0.0, 0.0, 0.0, 0.0, 0.0, 0.0, 0.0, 1.694076747013516E9, 0.0, 2023-09-07 16:52:27.013
93.0, 2726.577547380632, -34964.85620318129, -5843.371849462014, -13292.560075826656, 493.9959042067414, 3683.701596701336, 3217.265393407988, 16082.32600478244, 0.048, 1.01, -0.04, 192.0, 0.0, 0.0, 0.0, 0.0, 0.0, 0.0, 0.0, 0.0, 0.0, 1.694076747013579E9, 0.0, 2023-09-07 16:52:27.013
94.0, 2809.03313267626, -34516.48020940783, -5760.3574705550045, -12362.146361130042, 509.7985875366435, 3787.1231182960414, 3252.514094414007, 15966.275747570486, 0.048, 1.01, -0.04, 192.0, 0.0, 0.0, 0.0, 0.0, 0.0, 0.0, 0.0, 0.0, 0.0, 1.694076747013588E9, 0.0, 2023-09-07 16:52:27.013
95.0, 2404.555965013023, -34875.62803931571, -6087.676416358521, -12196.497582971762, 108.60712630833702, 3443.956785673712, 2874.5460956747647, 16231.903878677354, 0.048, 1.01, -0.04, 192.0, 0.0, 0.0, 0.0, 0.0, 0.0, 0.0, 0.0, 0.0, 0.0, 1.694076747013596E9, 0.0, 2023-09-07 16:52:27.013
96.0, 2288.237486867605, -35223.756459207114, -6216.1542434876255, -12892.55325705448, 35.15929402819801, 3289.9532663766468, 2801.6570570060085, 16257.384867356404, 0.048, 1.01, -0.04, 192.0, 0.0, 0.0, 0.0, 0.0, 0.0, 0.0, 0.0, 0.0, 0.0, 1.694076747013604E9, 0.0, 2023-09-07 16:52:27.013
97.0, 2668.351253074557, -35041.03094828498, -5886.086033116107, -13345.041971807716, 449.85120890750994, 3634.9077385554006, 3210.6492770492173, 16132.61742980688, 0.048, 1.01, -0.04, 192.0, 0.0, 0.0, 0.0, 0.0, 0.0, 0.0, 0.0, 0.0, 0.0, 1.694076747013612E9, 0.0, 2023-09-07 16:52:27.013
98.0, 2857.5811216331867, -34519.60945363158, -5719.878461346443, -12498.223781373952, 573.6128179565452, 3834.1511886300077, 3319.8599004578473, 15989.096878659355, 0.03, 1.022, -0.042, 192.0, 0.0, 240.0, 31.0, 240.0, 254.0, 176.0, 0.0, 0.0, 0.0, 1.69407674701362E9, 0.0, 2023-09-07 16:52:27.013
99.0, 2482.675311884321, -34784.254107982415, -6014.80972943422, -12120.524003568175, 183.01608360005423, 3528.8040076260577, 2955.6382245586187, 16224.997189640664, 0.03, 1.022, -0.042, 192.0, 0.0, 0.0, 0.0, 0.0, 0.0, 0.0, 0.0, 0.0, 0.0, 1.694076747013629E9, 0.0, 2023-09-07 16:52:27.013
100.0, 2283.2977513429823, -35180.59524066392, -6212.555612630322, -12740.829615691855, 22.016468288477455, 3294.065987356423, 2789.900039422517, 16295.248722463695, 0.03, 1.022, -0.042, 192.0, 0.0, 0.0, 0.0, 0.0, 0.0, 0.0, 0.0, 0.0, 0.0, 1.694076747013637E9, 0.0, 2023-09-07 16:52:27.013
101.0, 2596.1774702283706, -35119.038536434, -5943.150036710505, -13340.705733383385, 391.9601907682646, 3573.641607003404, 3145.71745940655, 16183.646462398347, 0.03, 1.022, -0.042, 192.0, 0.0, 0.0, 0.0, 0.0, 0.0, 0.0, 0.0, 0.0, 0.0, 1.694076747013645E9, 0.0, 2023-09-07 16:52:27.013
102.0, 2862.18558099098, -34577.99221014884, -5723.097112548007, -12666.957100267065, 588.2085070858607, 3824.942269914421, 3334.3661826093416, 15978.613910509815, 0.03, 1.022, -0.042, 192.0, 0.0, 0.0, 0.0, 0.0, 0.0, 0.0, 0.0, 0.0, 0.0, 1.694076747013653E9, 0.0, 2023-09-07 16:52:27.013
103.0, 2527.714076961765, -34734.744994013905, -5987.652359921022, -12107.06825340608, 226.2220056321628, 3554.2626445606525, 2985.3883964286324, 16144.86618576839, 0.03, 1.022, -0.042, 192.0, 0.0, 0.0, 0.0, 0.0, 0.0, 0.0, 0.0, 0.0, 0.0, 1.694076747013662E9, 0.0, 2023-09-07 16:52:27.013
104.0, 2274.625274494323, -35155.315417684964, -6229.274717482891, -12632.02132368342, 1.4975668785055731, 3292.903696644747, 2757.3558994955897, 16305.75404235769, 0.03, 1.022, -0.042, 192.0, 0.0, 0.0, 0.0, 0.0, 0.0, 0.0, 0.0, 0.0, 0.0, 1.69407674701367E9, 0.0, 2023-09-07 16:52:27.013
105.0, 2522.9308036483294, -35193.44749372572, -6018.453063780435, -13320.20918371787, 303.04495132505315, 3501.087844501477, 3065.005310178436, 16205.953503364743, 0.03, 1.022, -0.042, 192.0, 0.0, 0.0, 0.0, 0.0, 0.0, 0.0, 0.0, 0.0, 0.0, 1.694076747013678E9, 0.0, 2023-09-07 16:52:27.013
106.0, 2858.6540053670415, -34671.48955720539, -5741.85022614601, -12859.427971771715, 586.554477996168, 3801.3611795140723, 3311.8803276873027, 15989.298044359452, 0.03, 1.022, -0.042, 192.0, 0.0, 0.0, 0.0, 0.0, 0.0, 0.0, 0.0, 0.0, 0.0, 1.694076747013686E9, 0.0, 2023-09-07 16:52:27.013
107.0, 2615.7128948823092, -34662.79472861227, -5925.581565568634, -12111.829174975059, 302.2179367802068, 3622.5248721271605, 3038.4290860210763, 16103.42605154825, 0.03, 1.022, -0.042, 192.0, 0.0, 0.0, 0.0, 0.0, 0.0, 0.0, 0.0, 0.0, 0.0, 1.694076747073236E9, 0.0, 2023-09-07 16:52:27.073
108.0, 2287.991617678597, -35119.48557132311, -6220.177557489581, -12516.798081016314, -0.40233140019552716, 3298.0222461250123, 2749.6892511474193, 16308.70447262579, 0.02, 1.002, -0.036000000000000004, 192.0, 0.0, 160.0, 31.0, 80.0, 254.0, 224.0, 0.0, 0.0, 0.0, 1.694076747073265E9, 0.0, 2023-09-07 16:52:27.073
109.0, 2455.4732388822126, -35243.02366292759, -6086.581180880211, -13259.457142288345, 220.76817998506786, 3424.2648988085866, 2976.604160857697, 16220.124509349407, 0.02, 1.002, -0.036000000000000004, 192.0, 0.0, 0.0, 0.0, 0.0, 0.0, 0.0, 0.0, 0.0, 0.0, 1.694076747073311E9, 0.0, 2023-09-07 16:52:27.073
110.0, 2851.3673366746116, -34745.78675577483, -5753.160208840395, -13020.584049294479, 583.7605099392546, 3779.70233913688, 3324.777284238015, 16020.814004041435, 0.02, 1.002, -0.036000000000000004, 192.0, 0.0, 0.0, 0.0, 0.0, 0.0, 0.0, 0.0, 0.0, 0.0, 1.694076747073319E9, 0.0, 2023-09-07 16:52:27.073
111.0, 2708.293820416191, -34582.88724218455, -5852.781933877699, -12131.990448473745, 388.9427052667982, 3694.4751375287938, 3135.949747079581, 16063.70700165117, 0.02, 1.002, -0.036000000000000004, 192.0, 0.0, 0.0, 0.0, 0.0, 0.0, 0.0, 0.0, 0.0, 0.0, 1.694076747073327E9, 0.0, 2023-09-07 16:52:27.073
112.0, 2334.170321723261, -35042.908494819225, -6178.089222680238, -12386.241541652864, 32.25356724900809, 3340.42350535673, 2790.6599987339973, 16302.088356267019, 0.02, 1.002, -0.036000000000000004, 192.0, 0.0, 0.0, 0.0, 0.0, 0.0, 0.0, 0.0, 0.0, 0.0, 1.69407674707334E9, 0.0, 2023-09-07 16:52:27.073
113.0, 2413.3849040728696, -35249.50566881963, -6129.3400680232135, -13148.681896767843, 163.12303103483094, 3376.454517418685, 2920.5012822748763, 16233.7814252116, 0.02, 1.002, -0.036000000000000004, 192.0, 0.0, 0.0, 0.0, 0.0, 0.0, 0.0, 0.0, 0.0, 0.0, 1.694076747073349E9, 0.0, 2023-09-07 16:52:27.073
114.0, 2839.0962289686477, -34827.50473350343, -5769.722851481778, -13140.299992597103, 578.329036036615, 3755.7859725697012, 3317.0212289120236, 16050.541824166994, 0.02, 1.002, -0.036000000000000004, 192.0, 0.0, 0.0, 0.0, 0.0, 0.0, 0.0, 0.0, 0.0, 0.0, 1.694076747073357E9, 0.0, 2023-09-07 16:52:27.073
115.0, 2782.3004463077127, -34547.526782456254, -5804.122186198496, -12194.351815504053, 457.85313342250987, 3741.1902834403854, 3192.0302739179465, 16009.50402134705, 0.02, 1.002, -0.036000000000000004, 192.0, 0.0, 0.0, 0.0, 0.0, 0.0, 0.0, 0.0, 0.0, 0.0, 1.694076747073365E9, 0.0, 2023-09-07 16:52:27.073
116.0, 2383.7688426695877, -34991.74535176103, -6141.857044918185, -12287.893866049513, 70.5868089898597, 3386.1775262567435, 2824.7687607727958, 16287.157390970873, 0.02, 1.002, -0.036000000000000004, 192.0, 0.0, 0.0, 0.0, 0.0, 0.0, 0.0, 0.0, 0.0, 0.0, 1.694076747073373E9, 0.0, 2023-09-07 16:52:27.073
117.0, 2365.37335698287, -35253.41722409931, -6181.4643360929895, -13043.785160039088, 98.97352444809967, 3333.7850372535036, 2853.982490775882, 16248.377114340916, 0.028, 0.992, -0.04, 192.0, 0.0, 224.0, 31.0, 0.0, 254.0, 192.0, 0.0, 0.0, 0.0, 1.694076747073381E9, 0.0, 2023-09-07 16:52:27.073
118.0, 2796.31499008119, -34916.46467643556, -5812.43703513587, -13246.627240970998, 535.8830733159868, 3719.777312252201, 3284.1418128182668, 16098.75453695709, 0.028, 0.992, -0.04, 192.0, 0.0, 0.0, 0.0, 0.0, 0.0, 0.0, 0.0, 0.0, 0.0, 1.69407674707339E9, 0.0, 2023-09-07 16:52:27.073
119.0, 2838.8056562907286, -34517.64250011951, -5766.414793302392, -12300.969636555868, 513.039590482663, 3784.1056327945753, 3249.7871815904596, 15985.207675124131, 0.028, 0.992, -0.04, 192.0, 0.0, 0.0, 0.0, 0.0, 0.0, 0.0, 0.0, 0.0, 0.0, 1.694076747073398E9, 0.0, 2023-09-07 16:52:27.073
120.0, 2427.4217995908025, -34910.38500194371, -6101.44509094299, -12204.477155742306, 102.39334134976166, 3433.7420384576367, 2868.0417380382705, 16251.46165507575, 0.028, 0.992, -0.04, 192.0, 0.0, 0.0, 0.0, 0.0, 0.0, 0.0, 0.0, 0.0, 0.0, 1.694076747073406E9, 0.0, 2023-09-07 16:52:27.073
121.0, 2337.344269435915, -35234.64175875685, -6202.922010770084, -12911.46283286367, 63.255436808518986, 3304.4595485281407, 2821.1924816599467, 16264.023335459631, 0.028, 0.992, -0.04, 192.0, 0.0, 0.0, 0.0, 0.0, 0.0, 0.0, 0.0, 0.0, 0.0, 1.694076747073414E9, 0.0, 2023-09-07 16:52:27.073
122.0, 2729.6173846265538, -35019.75208756353, -5869.232817796805, -13312.117852225048, 488.9220582153867, 3659.986395834255, 3214.404370117709, 16137.244240909129, 0.028, 0.992, -0.04, 192.0, 0.0, 0.0, 0.0, 0.0, 0.0, 0.0, 0.0, 0.0, 0.0, 1.694076747133445E9, 0.0, 2023-09-07 16:52:27.133
123.0, 2888.247715025868, -34519.4976949093, -5732.797769641611, -12432.107321275154, 572.1152510780396, 3820.8966041680105, 3263.488800941563, 15978.479800043084, 0.028, 0.992, -0.04, 192.0, 0.0, 0.0, 0.0, 0.0, 0.0, 0.0, 0.0, 0.0, 0.0, 1.694076747133474E9, 0.0, 2023-09-07 16:52:27.133
124.0, 2494.8570126124637, -34821.53681773387, -6050.550168818256, -12127.095416438035, 168.0627665594538, 3493.421196153307, 2859.212798978424, 16216.190602325274, 0.028, 0.992, -0.04, 192.0, 0.0, 0.0, 0.0, 0.0, 0.0, 0.0, 0.0, 0.0, 0.0, 1.694076747133516E9, 0.0, 2023-09-07 16:52:27.133
125.0, 2310.052789455985, -35213.67582245777, -6239.75768563243, -12790.964578505109, 21.591785143826623, 3272.02716732349, 2728.320983448146, 16261.296422636084, 0.028, 0.992, -0.04, 192.0, 0.0, 0.0, 0.0, 0.0, 0.0, 0.0, 0.0, 0.0, 0.0, 1.694076747133525E9, 0.0, 2023-09-07 16:52:27.133
126.0, 2653.3755842895016, -35108.488513051096, -5941.160731453983, -13346.517186941766, 407.6064118869796, 3579.2295431172306, 3138.520197691941, 16149.895328270833, 0.028, 0.992, -0.04, 192.0, 0.0, 0.0, 0.0, 0.0, 0.0, 0.0, 0.0, 0.0, 0.0, 1.694076747133533E9, 0.0, 2023-09-07 16:52:27.133
127.0, 2911.538232748298, -34557.048625594216, -5721.644249158412, -12608.26141932743, 596.4339490454137, 3826.0822088816417, 3312.75204572106, 15973.137733118265, 0.034, 1.0, -0.042, 192.0, 1.0, 16.0, 31.0, 64.0, 254.0, 176.0, 0.0, 0.0, 0.0, 1.694076747133541E9, 0.0, 2023-09-07 16:52:27.133
128.0, 2565.0861936910387, -34743.46217435148, -5988.322912254681, -12094.126593366456, 232.54754931301468, 3553.770906182636, 2991.40101568711, 16169.117828502398, 0.034, 1.0, -0.042, 192.0, 0.0, 0.0, 0.0, 0.0, 0.0, 0.0, 0.0, 0.0, 0.0, 1.694076747133549E9, 0.0, 2023-09-07 16:52:27.133
129.0, 2311.013914467563, -35175.43198769474, -6230.861691339218, -12662.017364742442, 11.153520483198225, 3279.000911593546, 2771.4374985024333, 16291.717146839757, 0.034, 1.0, -0.042, 192.0, 0.0, 0.0, 0.0, 0.0, 0.0, 0.0, 0.0, 0.0, 0.0, 1.694076747133557E9, 0.0, 2023-09-07 16:52:27.133
130.0, 2585.7392055677424, -35174.761435361084, -5997.844755392642, -13317.482270894323, 335.1197046184188, 3520.466806944228, 3086.5747435778076, 16194.48705845917, 0.034, 1.0, -0.042, 192.0, 0.0, 0.0, 0.0, 0.0, 0.0, 0.0, 0.0, 0.0, 0.0, 1.694076747133566E9, 0.0, 2023-09-07 16:52:27.133
131.0, 2900.76469192084, -34623.746231048855, -5733.3565632529935, -12784.259055168517, 595.3163618226483, 3805.9432871274103, 3318.898775446269, 15979.01624191001, 0.034, 1.0, -0.042, 192.0, 0.0, 0.0, 0.0, 0.0, 0.0, 0.0, 0.0, 0.0, 0.0, 1.694076747133575E9, 0.0, 2023-09-07 16:52:27.133
132.0, 2606.414569188901, -34683.87242363363, -5958.460981662391, -12106.643570261427, 265.69518634023507, 3587.700854265792, 2987.176535985057, 16099.492144524116, 0.034, 1.0, -0.042, 192.0, 0.0, 0.0, 0.0, 0.0, 0.0, 0.0, 0.0, 0.0, 0.0, 1.694076747133583E9, 0.0, 2023-09-07 16:52:27.133
133.0, 2307.1023591878843, -35132.22606566263, -6231.509891928422, -12553.544348900838, -6.504357636494356, 3283.9406471181687, 2718.4638641433557, 16283.983443258221, 0.034, 1.0, -0.042, 192.0, 0.0, 0.0, 0.0, 0.0, 0.0, 0.0, 0.0, 0.0, 0.0, 1.694076747133591E9, 0.0, 2023-09-07 16:52:27.133
134.0, 2510.614992453455, -35220.98484289466, -6065.503485858856, -13275.282177362702, 249.7360407991458, 3442.8391984509467, 2993.9714662994706, 16197.39278523836, 0.034, 1.0, -0.042, 192.0, 0.0, 0.0, 0.0, 0.0, 0.0, 0.0, 0.0, 0.0, 0.0, 1.694076747133599E9, 0.0, 2023-09-07 16:52:27.133
135.0, 2888.158308048047, -34713.93551992602, -5751.081496606052, -12968.437429480247, 587.5379547522015, 3786.3408072401057, 3313.936688177191, 15995.757698507035, 0.034, 1.0, -0.042, 192.0, 0.0, 0.0, 0.0, 0.0, 0.0, 0.0, 0.0, 0.0, 0.0, 1.694076747133607E9, 0.0, 2023-09-07 16:52:27.133
136.0, 2693.8322417536074, -34619.99113798036, -5893.819736697643, -12133.68918105235, 344.5744925230137, 3651.403325963417, 3078.4163568516205, 16056.42033295874, 0.034, 1.0, -0.042, 192.0, 0.0, 0.0, 0.0, 0.0, 0.0, 0.0, 0.0, 0.0, 0.0, 1.694076747133615E9, 0.0, 2023-09-07 16:52:27.133
137.0, 2340.361754937381, -35071.96576261112, -6202.296161925336, -12434.36484746514, 16.227366474552927, 3320.865728958336, 2754.874855861051, 16293.37117592945, 0.042, 1.012, -0.048, 192.0, 1.0, 80.0, 31.0, 160.0, 254.0, 128.0, 0.0, 0.0, 0.0, 1.694076747193551E9, 0.0, 2023-09-07 16:52:27.193
138.0, 2451.6287388358996, -35244.20830538372, -6123.863890631663, -13188.624464109476, 181.92084812174417, 3389.329122224942, 2900.898802387572, 16227.008846641642, 0.042, 1.012, -0.048, 192.0, 0.0, 0.0, 0.0, 0.0, 0.0, 0.0, 0.0, 0.0, 0.0, 1.694076747193582E9, 0.0, 2023-09-07 16:52:27.193
139.0, 2863.6160926361194, -34799.74386688994, -5775.511953295702, -13108.314646281558, 573.4787074898134, 3758.199960970874, 3279.783222649482, 16042.249326974075, 0.042, 1.012, -0.048, 192.0, 0.0, 0.0, 0.0, 0.0, 0.0, 0.0, 0.0, 0.0, 0.0, 1.694076747193591E9, 0.0, 2023-09-07 16:52:27.193
140.0, 2772.9127136364837, -34555.23813429334, -5829.245546966261, -12181.45485895334, 424.9066620953873, 3714.859928472034, 3153.562921710363, 16018.221201684619, 0.042, 1.012, -0.048, 192.0, 0.0, 0.0, 0.0, 0.0, 0.0, 0.0, 0.0, 0.0, 0.0, 1.694076747193629E9, 0.0, 2023-09-07 16:52:27.193
141.0, 2367.407365728303, -35015.102924716826, -6170.22140863197, -12331.502119481816, 38.82498011886837, 3342.770438524537, 2803.6016587736203, 16276.853236776977, 0.042, 1.012, -0.048, 192.0, 0.0, 0.0, 0.0, 0.0, 0.0, 0.0, 0.0, 0.0, 0.0, 1.694076747193636E9, 0.0, 2023-09-07 16:52:27.193
142.0, 2393.558906741012, -35259.563953824516, -6165.885170207641, -13087.214599515748, 115.62557406730343, 3330.678144774216, 2875.6189794086195, 16241.001038670665, 0.042, 1.012, -0.048, 192.0, 0.0, 0.0, 0.0, 0.0, 0.0, 0.0, 0.0, 0.0, 0.0, 1.694076747193643E9, 0.0, 2023-09-07 16:52:27.193
143.0, 2814.9116414680057, -34900.81845531684, -5805.128014698985, -13235.250203043248, 538.7217448618109, 3717.3633238510283, 3285.907600630236, 16080.694327437202, 0.042, 1.012, -0.048, 192.0, 0.0, 0.0, 0.0, 0.0, 0.0, 0.0, 0.0, 0.0, 0.0, 1.694076747193651E9, 0.0, 2023-09-07 16:52:27.193
144.0, 2852.730793086385, -34508.21006395937, -5760.916264166387, -12270.191284440909, 501.14846243243966, 3780.2611327482623, 3251.485914169063, 16001.457393343138, 0.042, 1.012, -0.048, 192.0, 0.0, 0.0, 0.0, 0.0, 0.0, 0.0, 0.0, 0.0, 0.0, 1.694076747193658E9, 0.0, 2023-09-07 16:52:27.193
145.0, 2422.5491192995455, -34933.11672605476, -6117.985381839917, -12236.32839159112, 81.53916377296017, 3406.539965455528, 2854.1389529870694, 16267.666669805845, 0.042, 1.012, -0.048, 192.0, 0.0, 0.0, 0.0, 0.0, 0.0, 0.0, 0.0, 0.0, 0.0, 1.694076747193665E9, 0.0, 2023-09-07 16:52:27.193
146.0, 2365.596874427423, -35245.1694303953, -6189.555667585811, -12964.771743389576, 81.87443993978977, 3308.03582764099, 2849.8474180516505, 16271.555873341069, 0.042, 1.012, -0.048, 192.0, 0.0, 0.0, 0.0, 0.0, 0.0, 0.0, 0.0, 0.0, 0.0, 1.694076747193673E9, 0.0, 2023-09-07 16:52:27.193
147.0, 2773.091527592126, -34988.4596453261, -5838.208596492839, -13300.785517786207, 503.60715432252346, 3670.6481779394367, 3264.293463741954, 16132.438615851239, 0.034, 1.022, -0.052000000000000005, 192.0, 1.0, 16.0, 31.0, 240.0, 254.0, 96.0, 0.0, 0.0, 0.0, 1.69407674719368E9, 0.0, 2023-09-07 16:52:27.193
148.0, 2883.9114766015387, -34518.60362513109, -5740.084438334041, -12404.145288961565, 540.331070462593, 3793.2921997657063, 3282.3089697729315, 15973.674174985192, 0.034, 1.022, -0.052000000000000005, 192.0, 0.0, 0.0, 0.0, 0.0, 0.0, 0.0, 0.0, 0.0, 0.0, 1.694076747193688E9, 0.0, 2023-09-07 16:52:27.193
149.0, 2474.5839803915, -34858.57365829631, -6068.029232982306, -12164.758105845227, 131.49531263057145, 3466.9790824626784, 2909.7724449363286, 16241.582184026503, 0.034, 1.022, -0.052000000000000005, 192.0, 0.0, 0.0, 0.0, 0.0, 0.0, 0.0, 0.0, 0.0, 0.0, 1.694076747193695E9, 0.0, 2023-09-07 16:52:27.193
