%OpenBCI Raw EXG Data
%Number of channels = 8
%Sample Rate = 250 Hz
%Board = OpenBCI_GUI$BoardCytonSerial
Sample Index, EXG Channel 0, EXG Channel 1, EXG Channel 2, EXG Channel 3, EXG Channel 4, EXG Channel 5, EXG Channel 6, EXG Channel 7, Accel Channel 0, Accel Channel 1, Accel Channel 2, Other, Other, Other, Other, Other, Other, Other, Analog Channel 0, Analog Channel 1, Analog Channel 2, Timestamp, Other, Timestamp (Formatted)
0.0, 0.0, 0.0, 0.0, 0.0, 0.0, 0.0, 0.0, 0.0, 0.054, 1.01, -0.036000000000000004, 192.0, 1.0, 176.0, 31.0, 144.0, 254.0, 224.0, 0.0, 0.0, 0.0, 1.694076838305642E9, 0.0, 2023-09-07 16:53:58.305
1.0, 3538.2587955306526, -33942.24154260654, -4923.68697210395, -11018.091263543518, 1153.618234827308, 5155.854541761225, 3648.274081739674, 18687.958262915407, 0.054, 1.01, -0.036000000000000004, 192.0, 0.0, 0.0, 0.0, 0.0, 0.0, 0.0, 0.0, 0.0, 0.0, 1.694076838321647E9, 0.0, 2023-09-07 16:53:58.321
2.0, 3739.4244956284165, -33939.00053966052, -4774.734947053784, -11552.029735091894, 1362.160010595323, 5315.714218105581, 3876.775965306278, 18611.82822130063, 0.054, 1.01, -0.036000000000000004, 192.0, 0.0, 0.0, 0.0, 0.0, 0.0, 0.0, 0.0, 0.0, 0.0, 1.694076838381436E9, 0.0, 2023-09-07 16:53:58.381
3.0, 4010.3946936601037, -33469.23392644333, -4551.396316456356, -11143.104570282052, 1613.505376995251, 5570.322939195984, 4070.7891071783433, 18381.985233066705, 0.054, 1.01, -0.036000000000000004, 192.0, 0.0, 0.0, 0.0, 0.0, 0.0, 0.0, 0.0, 0.0, 0.0, 1.694076838381499E9, 0.0, 2023-09-07 16:53:58.381
4.0, 3780.037615303709, -33497.37477271257, -4695.45330947081, -10452.905053246624, 1354.0463273580465, 5415.537108842982, 3804.1551475709857, 18533.463005240323, 0.054, 1.01, -0.036000000000000004, 192.0, 0.0, 0.0, 0.0, 0.0, 0.0, 0.0, 0.0, 0.0, 0.0, 1.694076838381509E9, 0.0, 2023-09-07 16:53:58.381
5.0, 3528.9157663483343, -33896.398114728705, -4927.196195983433, -10899.515259208114, 1146.2868626459674, 5141.884701476658, 3619.865014536979, 18674.189588330937, 0.054, 1.01, -0.036000000000000004, 192.0, 0.0, 0.0, 0.0, 0.0, 0.0, 0.0, 0.0, 0.0, 0.0, 1.694076838381518E9, 0.0, 2023-09-07 16:53:58.381
6.0, 3669.664701183403, -33969.71183654211, -4810.922421326926, -11525.766435356909, 1330.9122718468038, 5268.775554749436, 3844.8576742241, 18611.671759089444, 0.054, 1.01, -0.036000000000000004, 192.0, 0.0, 0.0, 0.0, 0.0, 0.0, 0.0, 0.0, 0.0, 0.0, 1.694076838381527E9, 0.0, 2023-09-07 16:53:58.381
7.0, 3992.3121323957603, -33541.63122673407, -4557.990081070671, -11267.447324686924, 1611.6501822054604, 5554.0955727214305, 4114.531471077379, 18428.253344089193, 0.054, 1.01, -0.036000000000000004, 192.0, 0.0, 0.0, 0.0, 0.0, 0.0, 0.0, 0.0, 0.0, 0.0, 1.694076838381536E9, 0.0, 2023-09-07 16:53:58.381
8.0, 3833.6147467630803, -33450.36905412305, -4664.384384677933, -10479.190704726065, 1403.0189994596244, 5457.245463996585, 3903.039265041264, 18486.814914562096, 0.06, 1.014, -0.04, 192.0, 1.0, 224.0, 31.0, 176.0, 254.0, 192.0, 0.0, 0.0, 0.0, 1.694076838381545E9, 0.0, 2023-09-07 16:53:58.381
9.0, 3546.663051445848, -33848.721843805535, -4914.790977810738, -10775.887760625812, 1135.7591910075178, 5174.160620470121, 3636.2711949671743, 18708.343053858647, 0.06, 1.014, -0.04, 192.0, 0.0, 0.0, 0.0, 0.0, 0.0, 0.0, 0.0, 0.0, 0.0, 1.694076838381555E9, 0.0, 2023-09-07 16:53:58.381
10.0, 3646.4859421832493, -33976.4173598787, -4844.5394449877085, -11457.526559534856, 1273.289474641022, 5235.203234577565, 3762.111516250553, 18628.368512197558, 0.06, 1.014, -0.04, 192.0, 0.0, 0.0, 0.0, 0.0, 0.0, 0.0, 0.0, 0.0, 0.0, 1.694076838381564E9, 0.0, 2023-09-07 16:53:58.381
11.0, 3979.7504520118778, -33601.71271582993, -4575.558552212543, -11383.96696853244, 1598.4626529768293, 5544.305508650006, 4069.850333911221, 18472.12981845496, 0.06, 1.014, -0.04, 192.0, 0.0, 0.0, 0.0, 0.0, 0.0, 0.0, 0.0, 0.0, 0.0, 1.694076838381572E9, 0.0, 2023-09-07 16:53:58.381
12.0, 3879.7710990632895, -33412.10286761557, -4631.013230206159, -10543.809597946358, 1453.7351076287162, 5507.045150643009, 3952.7495447098668, 18462.429161361357, 0.06, 1.014, -0.04, 192.0, 0.0, 0.0, 0.0, 0.0, 0.0, 0.0, 0.0, 0.0, 0.0, 1.694076838381581E9, 0.0, 2023-09-07 16:53:58.381
13.0, 3538.6834786753034, -33814.70248874456, -4911.482919631353, -10684.491477548061, 1134.0828101733698, 5181.536696140372, 3645.860093338501, 18702.576303789177, 0.06, 1.014, -0.04, 192.0, 0.0, 0.0, 0.0, 0.0, 0.0, 0.0, 0.0, 0.0, 0.0, 1.694076838381591E9, 0.0, 2023-09-07 16:53:58.381
14.0, 3592.6629415348702, -33994.3211071874, -4886.15839316349, -11393.935846559507, 1225.0320583620141, 5185.850582820247, 3734.171835681419, 18636.370436712557, 0.06, 1.014, -0.04, 192.0, 0.0, 0.0, 0.0, 0.0, 0.0, 0.0, 0.0, 0.0, 0.0, 1.6940768383816E9, 0.0, 2023-09-07 16:53:58.381
15.0, 3924.4298844849927, -33702.58613855674, -4621.267869623646, -11507.102728736727, 1548.9535390083242, 5482.681749186725, 4027.9184613130647, 18486.23376920626, 0.06, 1.014, -0.04, 192.0, 0.0, 0.0, 0.0, 0.0, 0.0, 0.0, 0.0, 0.0, 0.0, 1.694076838381608E9, 0.0, 2023-09-07 16:53:58.381
16.0, 3918.7748931378, -33396.8813296415, -4605.86751769394, -10652.30496553242, 1490.4366720243302, 5514.8235577134565, 3969.7368704959003, 18390.031861070616, 0.06, 1.014, -0.04, 192.0, 0.0, 0.0, 0.0, 0.0, 0.0, 0.0, 0.0, 0.0, 0.0, 1.694076838381652E9, 0.0, 2023-09-07 16:53:58.381
17.0, 3571.540543024605, -33751.402348447125, -4885.532544318741, -10591.865848525269, 1151.204246426135, 5220.2722692814195, 3647.178846261364, 18664.17600681496, 0.062, 1.022, -0.036000000000000004, 192.0, 1.0, 240.0, 31.0, 240.0, 254.0, 224.0, 0.0, 0.0, 0.0, 1.694076838441711E9, 0.0, 2023-09-07 16:53:58.441
18.0, 3541.253929287664, -34007.37452594931, -4937.098018777135, -11314.989485143362, 1176.5734763829084, 5148.858445746714, 3663.7191371582912, 18629.933134309427, 0.062, 1.022, -0.036000000000000004, 192.0, 0.0, 0.0, 0.0, 0.0, 0.0, 0.0, 0.0, 0.0, 0.0, 1.694076838441739E9, 0.0, 2023-09-07 16:53:58.441
19.0, 3859.073383697675, -33786.76280817542, -4665.949006789805, -11591.905247200162, 1512.0731606570675, 5441.59924287787, 3991.1498416840845, 18526.645723181453, 0.062, 1.022, -0.036000000000000004, 192.0, 0.0, 0.0, 0.0, 0.0, 0.0, 0.0, 0.0, 0.0, 0.0, 1.694076838441746E9, 0.0, 2023-09-07 16:53:58.441
20.0, 3970.0274431738194, -33372.69674214086, -4558.705336893241, -10761.046202307487, 1557.1119257345113, 5577.430793932771, 4032.5452724153133, 18411.578942725533, 0.062, 1.022, -0.036000000000000004, 192.0, 0.0, 0.0, 0.0, 0.0, 0.0, 0.0, 0.0, 0.0, 0.0, 1.694076838441752E9, 0.0, 2023-09-07 16:53:58.441
21.0, 3637.209968234297, -33656.38508276762, -4811.704732382862, -10482.923446050101, 1216.5607472134527, 5307.980514524044, 3710.8589662145337, 18693.07681239567, 0.062, 1.022, -0.036000000000000004, 192.0, 0.0, 0.0, 0.0, 0.0, 0.0, 0.0, 0.0, 0.0, 0.0, 1.694076838441759E9, 0.0, 2023-09-07 16:53:58.441
22.0, 3551.6027869704712, -33953.08213866736, -4911.795844053727, -11160.15895130145, 1175.9029240492493, 5159.743745296449, 3638.5287211571604, 18685.231350091857, 0.062, 1.022, -0.036000000000000004, 192.0, 0.0, 0.0, 0.0, 0.0, 0.0, 0.0, 0.0, 0.0, 0.0, 1.694076838441766E9, 0.0, 2023-09-07 16:53:58.441
23.0, 3820.2260518343514, -33837.27775064442, -4682.556352920098, -11605.808032251363, 1472.4211659933528, 5397.722768512102, 3945.9769661399087, 18556.775874707208, 0.062, 1.022, -0.036000000000000004, 192.0, 0.0, 0.0, 0.0, 0.0, 0.0, 0.0, 0.0, 0.0, 0.0, 1.694076838441773E9, 0.0, 2023-09-07 16:53:58.441
24.0, 3994.1226236966404, -33384.34200100208, -4529.178682467781, -10895.223724272695, 1599.6249436885053, 5577.319035210495, 4062.1166303296845, 18395.843314628997, 0.062, 1.022, -0.036000000000000004, 192.0, 0.0, 0.0, 0.0, 0.0, 0.0, 0.0, 0.0, 0.0, 0.0, 1.694076838441779E9, 0.0, 2023-09-07 16:53:58.441
25.0, 3673.553904718626, -33587.16173018953, -4763.290853892667, -10434.978954193468, 1268.5285530720416, 5321.48096817505, 3786.564324684659, 18639.63379140303, 0.062, 1.022, -0.036000000000000004, 192.0, 0.0, 0.0, 0.0, 0.0, 0.0, 0.0, 0.0, 0.0, 0.0, 1.694076838441786E9, 0.0, 2023-09-07 16:53:58.441
26.0, 3522.9031470898567, -33936.78771695944, -4920.714190091395, -11057.340926807037, 1154.1546766942354, 5138.420181086085, 3682.7404716897577, 18694.708489740908, 0.062, 1.022, -0.036000000000000004, 192.0, 0.0, 0.0, 0.0, 0.0, 0.0, 0.0, 0.0, 0.0, 0.0, 1.694076838441793E9, 0.0, 2023-09-07 16:53:58.441
27.0, 3790.6993974088905, -33874.98514354052, -4702.628219440963, -11601.516497315944, 1447.0519360365793, 5360.529465738472, 3956.325823822716, 18580.088744174092, 0.044, 1.022, -0.034, 192.0, 1.0, 96.0, 31.0, 240.0, 254.0, 240.0, 0.0, 0.0, 0.0, 1.6940768384418E9, 0.0, 2023-09-07 16:53:58.441
28.0, 4023.5375193998243, -33403.72096344483, -4508.2574496576135, -11026.383760736438, 1623.7201242113263, 5611.159576315829, 4128.9483462510525, 18440.233879117237, 0.044, 1.022, -0.034, 192.0, 0.0, 0.0, 0.0, 0.0, 0.0, 0.0, 0.0, 0.0, 0.0, 1.694076838441808E9, 0.0, 2023-09-07 16:53:58.441
29.0, 3745.2806526757067, -33498.29119423523, -4704.17048980838, -10389.202581549, 1333.348611992432, 5413.167823930719, 3853.4630958393927, 18631.788329099218, 0.044, 1.022, -0.034, 192.0, 0.0, 0.0, 0.0, 0.0, 0.0, 0.0, 0.0, 0.0, 0.0, 1.694076838441815E9, 0.0, 2023-09-07 16:53:58.441
30.0, 3520.7126761332365, -33900.28731826393, -4926.570347138685, -10929.801872945056, 1139.2907666314563, 5130.418256571085, 3637.277023467663, 18725.75506278933, 0.044, 1.022, -0.034, 192.0, 0.0, 0.0, 0.0, 0.0, 0.0, 0.0, 0.0, 0.0, 0.0, 1.694076838441822E9, 0.0, 2023-09-07 16:53:58.441
31.0, 3726.013448955232, -33940.56516177239, -4766.509505094231, -11592.665206511641, 1371.1454118663564, 5276.218685653053, 3859.498066842326, 18601.658177573467, 0.044, 1.022, -0.034, 192.0, 0.0, 0.0, 0.0, 0.0, 0.0, 0.0, 0.0, 0.0, 0.0, 1.694076838441829E9, 0.0, 2023-09-07 16:53:58.441
32.0, 4007.5113186253693, -33485.93067955145, -4524.596574854443, -11213.132585660529, 1634.694830738882, 5583.041081791053, 4090.726863232477, 18429.88502143443, 0.044, 1.022, -0.034, 192.0, 0.0, 0.0, 0.0, 0.0, 0.0, 0.0, 0.0, 0.0, 0.0, 1.694076838501976E9, 0.0, 2023-09-07 16:53:58.501
33.0, 3815.0627988651754, -33443.68588253092, -4661.366899176467, -10410.637904481639, 1390.189098142278, 5434.692553841181, 3864.1248779445746, 18554.38423805049, 0.044, 1.022, -0.034, 192.0, 0.0, 0.0, 0.0, 0.0, 0.0, 0.0, 0.0, 0.0, 0.0, 1.694076838502E9, 0.0, 2023-09-07 16:53:58.502
34.0, 3524.2666035016305, -33856.16497470915, -4910.968829508881, -10799.446499281705, 1137.7708480084955, 5150.020736458389, 3644.854264838012, 18722.961094732418, 0.044, 1.022, -0.034, 192.0, 0.0, 0.0, 0.0, 0.0, 0.0, 0.0, 0.0, 0.0, 0.0, 1.694076838502008E9, 0.0, 2023-09-07 16:53:58.502
35.0, 3655.8736748544784, -33964.90621148422, -4806.586182902597, -11525.207641745525, 1321.8374635979492, 5270.384880350218, 3830.552557772703, 18617.393805670003, 0.044, 1.022, -0.034, 192.0, 0.0, 0.0, 0.0, 0.0, 0.0, 0.0, 0.0, 0.0, 0.0, 1.694076838502015E9, 0.0, 2023-09-07 16:53:58.502
36.0, 3993.899106252087, -33550.12488962709, -4532.397333669345, -11352.58511931719, 1630.3585923145524, 5581.2082387457185, 4123.539224092868, 18461.378629371957, 0.044, 1.022, -0.034, 192.0, 0.0, 0.0, 0.0, 0.0, 0.0, 0.0, 0.0, 0.0, 0.0, 1.694076838502025E9, 0.0, 2023-09-07 16:53:58.502
37.0, 3871.903285015021, -33381.36921898952, -4609.756721229162, -10441.997401952434, 1453.8692180954479, 5506.799281454001, 3939.941995136976, 18505.411565948914, 0.03, 1.01, -0.03, 192.0, 0.0, 240.0, 31.0, 144.0, 255.0, 16.0, 0.0, 0.0, 0.0, 1.694076838502034E9, 0.0, 2023-09-07 16:53:58.502
38.0, 3541.924481621323, -33808.086372385784, -4896.574306079663, -10684.759698481525, 1141.4588858436211, 5189.471565422006, 3625.922337284367, 18715.964998717904, 0.03, 1.01, -0.03, 192.0, 0.0, 0.0, 0.0, 0.0, 0.0, 0.0, 0.0, 0.0, 0.0, 1.694076838502043E9, 0.0, 2023-09-07 16:53:58.502
39.0, 3629.900947797412, -33971.410569120715, -4839.063267596158, -11436.851195913696, 1263.67822452524, 5243.540435259394, 3764.07846976262, 18649.15563454099, 0.03, 1.01, -0.03, 192.0, 0.0, 0.0, 0.0, 0.0, 0.0, 0.0, 0.0, 0.0, 0.0, 1.694076838502049E9, 0.0, 2023-09-07 16:53:58.502
40.0, 3959.902102935565, -33634.41331796805, -4554.302043235546, -11478.26897838938, 1593.4782139632957, 5547.770029040579, 4104.204965139028, 18506.95383631633, 0.03, 1.01, -0.03, 192.0, 0.0, 0.0, 0.0, 0.0, 0.0, 0.0, 0.0, 0.0, 0.0, 1.694076838502057E9, 0.0, 2023-09-07 16:53:58.502
41.0, 3899.10535801713, -33366.147681015456, -4583.694587194274, -10534.13129259721, 1508.698047244316, 5538.941089980733, 3992.1109666956627, 18474.43204813386, 0.03, 1.01, -0.03, 192.0, 0.0, 0.0, 0.0, 0.0, 0.0, 0.0, 0.0, 0.0, 0.0, 1.694076838502064E9, 0.0, 2023-09-07 16:53:58.502
42.0, 3544.4055252558624, -33758.331389228275, -4870.802744722694, -10579.438278608117, 1162.7824500539841, 5228.408304263152, 3680.01355886621, 18723.341074388158, 0.03, 1.01, -0.03, 192.0, 0.0, 0.0, 0.0, 0.0, 0.0, 0.0, 0.0, 0.0, 0.0, 1.69407683850207E9, 0.0, 2023-09-07 16:53:58.502
43.0, 3585.0633484200657, -33973.53398484397, -4868.2993493437, -11332.446197562957, 1233.548072999486, 5203.240240006476, 3764.9054843074664, 18659.750361412807, 0.03, 1.01, -0.03, 192.0, 0.0, 0.0, 0.0, 0.0, 0.0, 0.0, 0.0, 0.0, 0.0, 1.694076838502077E9, 0.0, 2023-09-07 16:53:58.502
44.0, 3922.8205588842106, -33730.95050227052, -4594.065796621537, -11583.679805240608, 1570.0088822852233, 5501.412511040272, 4071.549066489824, 18514.307560242123, 0.03, 1.01, -0.03, 192.0, 0.0, 0.0, 0.0, 0.0, 0.0, 0.0, 0.0, 0.0, 0.0, 1.694076838502084E9, 0.0, 2023-09-07 16:53:58.502
45.0, 3959.142143624085, -33345.025282505194, -4553.09504903496, -10641.129093304766, 1543.7455825502375, 5565.226741460174, 4036.8144556062766, 18452.527338567656, 0.03, 1.01, -0.03, 192.0, 0.0, 0.0, 0.0, 0.0, 0.0, 0.0, 0.0, 0.0, 0.0, 1.694076838502091E9, 0.0, 2023-09-07 16:53:58.502
46.0, 3608.6891423093252, -33679.832062701236, -4830.48019772532, -10482.11878324971, 1196.8241568594167, 5270.787211750414, 3728.248623400763, 18712.522830071786, 0.03, 1.01, -0.03, 192.0, 0.0, 0.0, 0.0, 0.0, 0.0, 0.0, 0.0, 0.0, 0.0, 1.694076838502098E9, 0.0, 2023-09-07 16:53:58.502
47.0, 3552.0051183706664, -33971.20940342062, -4903.5927538386295, -11222.945001476408, 1184.2177729866235, 5180.374405428696, 3712.1553673929416, 18685.79014370324, 0.038, 1.0, -0.028, 192.0, 1.0, 48.0, 31.0, 64.0, 255.0, 32.0, 0.0, 0.0, 0.0, 1.694076838560839E9, 0.0, 2023-09-07 16:53:58.560
48.0, 3873.0432239822417, -33808.801628208355, -4631.549672073087, -11652.187901996125, 1522.4220183398747, 5463.436897210705, 4034.7804468608438, 18560.28509858669, 0.038, 1.0, -0.028, 192.0, 0.0, 0.0, 0.0, 0.0, 0.0, 0.0, 0.0, 0.0, 0.0, 1.694076838560888E9, 0.0, 2023-09-07 16:53:58.560
49.0, 4008.4277401480367, -33352.06608200861, -4521.243813186146, -10784.739051430113, 1588.627885416494, 5604.811680890522, 4044.816380121277, 18434.35537032549, 0.038, 1.0, -0.028, 192.0, 0.0, 0.0, 0.0, 0.0, 0.0, 0.0, 0.0, 0.0, 0.0, 1.694076838560896E9, 0.0, 2023-09-07 16:53:58.560
50.0, 3643.1108287704983, -33634.659187157056, -4803.85927007905, -10423.691323243538, 1234.5762532444303, 5304.985380767033, 3696.106814874031, 18650.429683974944, 0.038, 1.0, -0.028, 192.0, 0.0, 0.0, 0.0, 0.0, 0.0, 0.0, 0.0, 0.0, 0.0, 1.694076838560903E9, 0.0, 2023-09-07 16:53:58.560
51.0, 3524.445417457273, -33966.42613010718, -4935.868672832093, -11114.181412956885, 1150.176066181191, 5139.202492142021, 3637.344078701029, 18667.01467836078, 0.038, 1.0, -0.028, 192.0, 0.0, 0.0, 0.0, 0.0, 0.0, 0.0, 0.0, 0.0, 0.0, 1.694076838560911E9, 0.0, 2023-09-07 16:53:58.560
52.0, 3816.873290166055, -33886.56334716837, -4687.630198911453, -11687.347196024322, 1474.6786921833389, 5391.978370187088, 3975.9283037100204, 18542.202537322348, 0.038, 1.0, -0.028, 192.0, 0.0, 0.0, 0.0, 0.0, 0.0, 0.0, 0.0, 0.0, 0.0, 1.694076838560918E9, 0.0, 2023-09-07 16:53:58.560
53.0, 4018.754246086389, -33388.41001849294, -4515.410007883312, -10961.317832627039, 1611.6948856943711, 5615.294649040062, 4110.843433242254, 18429.63915224542, 0.038, 1.0, -0.028, 192.0, 0.0, 0.0, 0.0, 0.0, 0.0, 0.0, 0.0, 0.0, 0.0, 1.694076838560925E9, 0.0, 2023-09-07 16:53:58.560
54.0, 3723.1971291538634, -33518.3630607561, -4726.924565663882, -10348.343592684698, 1291.2826289275442, 5398.750948757047, 3810.65950520748, 18649.513262452278, 0.038, 1.0, -0.028, 192.0, 0.0, 0.0, 0.0, 0.0, 0.0, 0.0, 0.0, 0.0, 0.0, 1.694076838560932E9, 0.0, 2023-09-07 16:53:58.560
55.0, 3507.100463759955, -33926.50591451, -4939.646117645039, -10967.419858863337, 1120.2470803555348, 5139.515416564395, 3617.0710464800654, 18707.359577102612, 0.038, 1.0, -0.028, 192.0, 0.0, 0.0, 0.0, 0.0, 0.0, 0.0, 0.0, 0.0, 0.0, 1.694076838560939E9, 0.0, 2023-09-07 16:53:58.560
56.0, 3749.4157253999383, -33943.26972285148, -4736.692277990852, -11677.534780208443, 1417.1005984664678, 5340.256433517508, 3898.837137083666, 18578.4347150844, 0.038, 1.0, -0.028, 192.0, 0.0, 0.0, 0.0, 0.0, 0.0, 0.0, 0.0, 0.0, 0.0, 1.694076838560945E9, 0.0, 2023-09-07 16:53:58.560
57.0, 4014.0156762618635, -33446.30103663219, -4510.716141547697, -11146.502035439258, 1628.726914969315, 5603.872907623399, 4105.367255850703, 18435.428254059345, 0.036000000000000004, 1.008, -0.032, 192.0, 1.0, 32.0, 31.0, 128.0, 255.0, 0.0, 0.0, 0.0, 0.0, 1.694076838560952E9, 0.0, 2023-09-07 16:53:58.560
58.0, 3777.757737369268, -33447.48567908832, -4667.848905068506, -10338.888804780103, 1363.1658390958119, 5431.898585784267, 3864.1248779445746, 18612.096442234095, 0.036000000000000004, 1.008, -0.032, 192.0, 0.0, 0.0, 0.0, 0.0, 0.0, 0.0, 0.0, 0.0, 0.0, 1.69407683856096E9, 0.0, 2023-09-07 16:53:58.560
59.0, 3534.6601646733484, -33859.18246021062, -4893.5568205781965, -10815.651514011803, 1141.0789061878809, 5174.652358848138, 3648.34113697304, 18746.36337117712, 0.036000000000000004, 1.008, -0.032, 192.0, 0.0, 0.0, 0.0, 0.0, 0.0, 0.0, 0.0, 0.0, 0.0, 1.694076838560967E9, 0.0, 2023-09-07 16:53:58.560
60.0, 3721.2525273862516, -33958.22303989209, -4756.3171096226115, -11598.208439136559, 1362.1376588508676, 5304.381883666741, 3858.3581278751053, 18606.888485776006, 0.036000000000000004, 1.008, -0.032, 192.0, 0.0, 0.0, 0.0, 0.0, 0.0, 0.0, 0.0, 0.0, 0.0, 1.694076838560974E9, 0.0, 2023-09-07 16:53:58.560
61.0, 4049.7561156458996, -33499.83346460265, -4486.688016258242, -11303.254819304326, 1656.8677612385466, 5596.429776719782, 4121.9075467476305, 18440.88207970644, 0.036000000000000004, 1.008, -0.032, 192.0, 0.0, 0.0, 0.0, 0.0, 0.0, 0.0, 0.0, 0.0, 0.0, 1.694076838560981E9, 0.0, 2023-09-07 16:53:58.560
62.0, 3843.181293389952, -33392.81331215064, -4637.472884353743, -10365.24151149291, 1396.738159267683, 5468.354280990873, 3875.9936542503424, 18527.09275807056, 0.036000000000000004, 1.008, -0.032, 192.0, 0.0, 0.0, 0.0, 0.0, 0.0, 0.0, 0.0, 0.0, 0.0, 1.694076838621907E9, 0.0, 2023-09-07 16:53:58.621
63.0, 3537.141208307887, -33832.136849419694, -4916.869690045081, -10721.818890788423, 1104.3549900478113, 5132.295803105331, 3589.891325222412, 18716.54614407374, 0.036000000000000004, 1.008, -0.032, 192.0, 0.0, 0.0, 0.0, 0.0, 0.0, 0.0, 0.0, 0.0, 0.0, 1.694076838621944E9, 0.0, 2023-09-07 16:53:58.621
64.0, 3641.590910147537, -33994.0752379984, -4826.702752912373, -11537.009362817927, 1291.2155736941784, 5205.0283795629, 3757.3952981704833, 18602.552247351676, 0.036000000000000004, 1.008, -0.032, 192.0, 0.0, 0.0, 0.0, 0.0, 0.0, 0.0, 0.0, 0.0, 0.0, 1.694076838622018E9, 0.0, 2023-09-07 16:53:58.622
65.0, 3994.4355481190146, -33595.52128261582, -4520.886185274861, -11487.74611803843, 1632.437304548896, 5585.611532403414, 4094.5266597898794, 18471.660431821398, 0.036000000000000004, 1.008, -0.032, 192.0, 0.0, 0.0, 0.0, 0.0, 0.0, 0.0, 0.0, 0.0, 0.0, 1.694076838622026E9, 0.0, 2023-09-07 16:53:58.622
66.0, 3883.8614682986104, -33342.38777665947, -4586.801479673562, -10437.30353561682, 1469.895418869903, 5542.0032789711095, 3949.1732655970177, 18501.097679269038, 0.036000000000000004, 1.008, -0.032, 192.0, 0.0, 0.0, 0.0, 0.0, 0.0, 0.0, 0.0, 0.0, 0.0, 1.694076838622033E9, 0.0, 2023-09-07 16:53:58.622
67.0, 3562.08575512001, -33752.184659503066, -4863.359613819077, -10585.607360077782, 1142.3529556218334, 5219.3334960142965, 3654.0631835535987, 18733.511118115322, 0.032, 1.016, -0.038, 192.0, 1.0, 0.0, 31.0, 192.0, 254.0, 208.0, 0.0, 0.0, 0.0, 1.69407683862204E9, 0.0, 2023-09-07 16:53:58.622
68.0, 3615.0593894790877, -33981.267688425505, -4849.210959578867, -11402.16128851906, 1231.6705264652403, 5209.69989415406, 3745.1912456978853, 18639.589087914123, 0.032, 1.016, -0.038, 192.0, 0.0, 0.0, 0.0, 0.0, 0.0, 0.0, 0.0, 0.0, 0.0, 1.694076838622047E9, 0.0, 2023-09-07 16:53:58.622
69.0, 3940.97017538192, -33716.1089439522, -4571.445831232766, -11627.48922437301, 1590.7513011397484, 5512.9013076903, 4072.5995984792235, 18478.835341791553, 0.032, 1.016, -0.038, 192.0, 0.0, 0.0, 0.0, 0.0, 0.0, 0.0, 0.0, 0.0, 0.0, 1.694076838622055E9, 0.0, 2023-09-07 16:53:58.622
70.0, 3923.8934426180654, -33340.44317489185, -4572.563418455532, -10567.725964513536, 1508.8992129444139, 5537.4211713577715, 3970.809754229755, 18429.59444875651, 0.032, 1.016, -0.038, 192.0, 0.0, 0.0, 0.0, 0.0, 0.0, 0.0, 0.0, 0.0, 0.0, 1.694076838622061E9, 0.0, 2023-09-07 16:53:58.622
71.0, 3577.1061273939763, -33712.30914739479, -4851.4684857688535, -10495.574533411806, 1167.744537323062, 5245.932071916112, 3648.2293782507636, 18702.732766000365, 0.032, 1.016, -0.038, 192.0, 0.0, 0.0, 0.0, 0.0, 0.0, 0.0, 0.0, 0.0, 0.0, 1.694076838622068E9, 0.0, 2023-09-07 16:53:58.622
72.0, 3552.385098026407, -33990.32014492991, -4906.073797473168, -11284.255836517315, 1180.4179764292212, 5165.68930932156, 3670.4917157282493, 18650.96612584187, 0.032, 1.016, -0.038, 192.0, 0.0, 0.0, 0.0, 0.0, 0.0, 0.0, 0.0, 0.0, 0.0, 1.694076838622075E9, 0.0, 2023-09-07 16:53:58.622
73.0, 3903.0169132968085, -33779.81141564983, -4611.120177640936, -11701.518202008987, 1548.8417802860477, 5459.637100653303, 4042.223577764461, 18506.372690960492, 0.032, 1.016, -0.038, 192.0, 0.0, 0.0, 0.0, 0.0, 0.0, 0.0, 0.0, 0.0, 0.0, 1.694076838622083E9, 0.0, 2023-09-07 16:53:58.622
74.0, 3974.721309509434, -33323.612311317, -4541.874473318395, -10704.697454535659, 1548.3276901635754, 5557.358927411906, 4016.0049815183856, 18421.16784109686, 0.032, 1.016, -0.038, 192.0, 0.0, 0.0, 0.0, 0.0, 0.0, 0.0, 0.0, 0.0, 0.0, 1.69407683862209E9, 0.0, 2023-09-07 16:53:58.622
75.0, 3605.0011044741996, -33640.604751182174, -4825.004020333769, -10422.841956954237, 1180.6861973626849, 5260.974795934534, 3671.4304889953723, 18664.243062048325, 0.032, 1.016, -0.038, 192.0, 0.0, 0.0, 0.0, 0.0, 0.0, 0.0, 0.0, 0.0, 0.0, 1.694076838622097E9, 0.0, 2023-09-07 16:53:58.622
76.0, 3521.517338933628, -33979.926583758184, -4928.649059373029, -11167.512675227246, 1138.0837724308697, 5120.561137266295, 3625.8552820510013, 18666.254719049302, 0.032, 1.016, -0.038, 192.0, 0.0, 0.0, 0.0, 0.0, 0.0, 0.0, 0.0, 0.0, 0.0, 1.694076838622104E9, 0.0, 2023-09-07 16:53:58.622
77.0, 3861.777944776767, -33886.00455355699, -4653.297919428101, -11752.726048556096, 1504.1606431198888, 5402.193117403164, 3982.253847390872, 18526.84688888155, 0.028, 1.016, -0.034, 192.0, 0.0, 224.0, 31.0, 192.0, 254.0, 240.0, 0.0, 0.0, 0.0, 1.694076838682107E9, 0.0, 2023-09-07 16:53:58.682
78.0, 4013.5686413727576, -33367.041750793665, -4507.922173490783, -10882.997320055643, 1597.5462314541617, 5584.918628325299, 4066.631682709656, 18421.12313760795, 0.028, 1.016, -0.034, 192.0, 0.0, 0.0, 0.0, 0.0, 0.0, 0.0, 0.0, 0.0, 0.0, 1.694076838682132E9, 0.0, 2023-09-07 16:53:58.682
79.0, 3692.105852616531, -33570.487328825875, -4770.823391774105, -10358.33482245622, 1230.9329188982153, 5328.700581634114, 3731.981364724799, 18634.291724478215, 0.028, 1.016, -0.034, 192.0, 0.0, 0.0, 0.0, 0.0, 0.0, 0.0, 0.0, 0.0, 0.0, 1.694076838682168E9, 0.0, 2023-09-07 16:53:58.682
80.0, 3535.800103640569, -33948.50003105403, -4933.007649541813, -11020.728769389245, 1122.012868167504, 5125.053837901812, 3607.3927411309173, 18680.828056434162, 0.028, 1.016, -0.034, 192.0, 0.0, 0.0, 0.0, 0.0, 0.0, 0.0, 0.0, 0.0, 0.0, 1.694076838682177E9, 0.0, 2023-09-07 16:53:58.682
81.0, 3815.0180953762647, -33926.394155787726, -4694.380425736956, -11725.456920320621, 1458.6524914088836, 5358.607215715315, 3926.039210085775, 18549.24333682577, 0.028, 1.016, -0.034, 192.0, 0.0, 0.0, 0.0, 0.0, 0.0, 0.0, 0.0, 0.0, 0.0, 1.694076838682186E9, 0.0, 2023-09-07 16:53:58.682
82.0, 4058.473295983469, -33396.680163941404, -4484.296379601524, -11071.109601391507, 1651.3915838469964, 5595.1780790302855, 4089.162241120606, 18413.009454370673, 0.028, 1.016, -0.034, 192.0, 0.0, 0.0, 0.0, 0.0, 0.0, 0.0, 0.0, 0.0, 0.0, 1.694076838682195E9, 0.0, 2023-09-07 16:53:58.682
83.0, 3756.9035597924662, -33480.946240537916, -4712.664152701396, -10321.677961549516, 1316.7859693510497, 5362.474067506083, 3766.335995952606, 18567.281194601204, 0.028, 1.016, -0.034, 192.0, 0.0, 0.0, 0.0, 0.0, 0.0, 0.0, 0.0, 0.0, 0.0, 1.694076838682204E9, 0.0, 2023-09-07 16:53:58.682
84.0, 3518.0081150541446, -33914.10069633731, -4935.7569141098165, -10887.44531720225, 1119.0177344104927, 5116.291954075331, 3580.3918338289063, 18690.394603061035, 0.028, 1.016, -0.034, 192.0, 0.0, 0.0, 0.0, 0.0, 0.0, 0.0, 0.0, 0.0, 0.0, 1.694076838682212E9, 0.0, 2023-09-07 16:53:58.682
85.0, 3761.2845017057066, -33981.44650238115, -4750.885635719971, -11683.525047722465, 1392.8713074769148, 5309.522784891461, 3856.7040987854125, 18572.19857838137, 0.028, 1.016, -0.034, 192.0, 0.0, 0.0, 0.0, 0.0, 0.0, 0.0, 0.0, 0.0, 0.0, 1.694076838682222E9, 0.0, 2023-09-07 16:53:58.682
86.0, 4077.584037492757, -33497.01714480128, -4487.738548247641, -11275.60571141311, 1655.4596013378623, 5606.175137302296, 4107.222450640494, 18438.557498283088, 0.028, 1.016, -0.034, 192.0, 0.0, 0.0, 0.0, 0.0, 0.0, 0.0, 0.0, 0.0, 0.0, 1.694076838682231E9, 0.0, 2023-09-07 16:53:58.682
87.0, 3832.6759734959574, -33434.923998704435, -4680.87997208595, -10356.390220688609, 1360.2377605721665, 5412.78784427498, 3816.9850488883317, 18538.313333787126, 0.026000000000000002, 1.018, -0.036000000000000004, 192.0, 0.0, 208.0, 31.0, 208.0, 254.0, 224.0, 0.0, 0.0, 0.0, 1.69407683868224E9, 0.0, 2023-09-07 16:53:58.682
88.0, 3525.7865221245916, -33865.93268703612, -4934.080533275668, -10776.267740281552, 1096.464824255088, 5117.096616875722, 3584.8398309755125, 18710.13119341507, 0.026000000000000002, 1.018, -0.036000000000000004, 192.0, 0.0, 0.0, 0.0, 0.0, 0.0, 0.0, 0.0, 0.0, 0.0, 1.69407683868225E9, 0.0, 2023-09-07 16:53:58.682
89.0, 3696.4867945297715, -33999.3278979454, -4794.784461830194, -11597.068500169338, 1320.4740071861754, 5255.073935398333, 3822.952964657899, 18602.149915951482, 0.026000000000000002, 1.018, -0.036000000000000004, 192.0, 0.0, 0.0, 0.0, 0.0, 0.0, 0.0, 0.0, 0.0, 0.0, 1.69407683868226E9, 0.0, 2023-09-07 16:53:58.682
90.0, 4041.709487641989, -33564.966447945415, -4502.378940865868, -11457.437152557035, 1658.790011261703, 5594.038140063065, 4123.449817115047, 18458.919937481875, 0.026000000000000002, 1.018, -0.036000000000000004, 192.0, 0.0, 0.0, 0.0, 0.0, 0.0, 0.0, 0.0, 0.0, 0.0, 1.694076838682268E9, 0.0, 2023-09-07 16:53:58.682
91.0, 3865.644796567535, -33377.34590498757, -4631.594375561997, -10411.330808559753, 1419.9392700122917, 5477.697310173191, 3893.584477136669, 18494.436859421356, 0.026000000000000002, 1.018, -0.036000000000000004, 192.0, 0.0, 0.0, 0.0, 0.0, 0.0, 0.0, 0.0, 0.0, 0.0, 1.694076838682278E9, 0.0, 2023-09-07 16:53:58.682
92.0, 3549.2558538026638, -33814.0319364109, -4906.92316376247, -10644.370096250785, 1119.4424175551437, 5187.906943310135, 3614.545299356616, 18718.267228396802, 0.026000000000000002, 1.018, -0.036000000000000004, 192.0, 0.0, 0.0, 0.0, 0.0, 0.0, 0.0, 0.0, 0.0, 0.0, 1.694076838741582E9, 0.0, 2023-09-07 16:53:58.741
93.0, 3640.67448862487, -34003.574729391905, -4843.421857764943, -11472.569283553277, 1280.1514601888014, 5211.756254643948, 3754.2884056911953, 18629.240230231313, 0.026000000000000002, 1.018, -0.036000000000000004, 192.0, 0.0, 0.0, 0.0, 0.0, 0.0, 0.0, 0.0, 0.0, 0.0, 1.694076838741623E9, 0.0, 2023-09-07 16:53:58.741
94.0, 4028.0749235242515, -33646.72912916292, -4511.051417714527, -11588.753651231964, 1655.9066362269684, 5574.994453787142, 4111.961020465019, 18507.08794678306, 0.026000000000000002, 1.018, -0.036000000000000004, 192.0, 0.0, 0.0, 0.0, 0.0, 0.0, 0.0, 0.0, 0.0, 0.0, 1.694076838741632E9, 0.0, 2023-09-07 16:53:58.741
95.0, 3946.044021373275, -33325.48985785125, -4567.891903864373, -10497.094452034766, 1502.506614030196, 5559.325880923972, 3968.4404693174924, 18489.02773726317, 0.026000000000000002, 1.018, -0.036000000000000004, 192.0, 0.0, 0.0, 0.0, 0.0, 0.0, 0.0, 0.0, 0.0, 0.0, 1.694076838741687E9, 0.0, 2023-09-07 16:53:58.741
96.0, 3585.644493775904, -33739.242999463444, -4864.34309057511, -10522.955420369557, 1151.4501156151434, 5226.486054239996, 3657.7512213887244, 18731.901792514538, 0.026000000000000002, 1.018, -0.036000000000000004, 192.0, 0.0, 0.0, 0.0, 0.0, 0.0, 0.0, 0.0, 0.0, 0.0, 1.694076838741695E9, 0.0, 2023-09-07 16:53:58.741
97.0, 3611.796034788613, -33982.273516926, -4863.113744630068, -11321.583249757678, 1215.331401268411, 5203.910792340135, 3739.8044752841565, 18684.292576824737, 0.032, 1.014, -0.052000000000000005, 192.0, 1.0, 0.0, 31.0, 176.0, 254.0, 96.0, 0.0, 0.0, 0.0, 1.694076838741703E9, 0.0, 2023-09-07 16:53:58.741
98.0, 3975.7271380099223, -33760.54421192935, -4546.858912331929, -11697.383129284755, 1627.3858103019966, 5520.724418249657, 4084.490726529447, 18538.33568553158, 0.032, 1.014, -0.052000000000000005, 192.0, 0.0, 0.0, 0.0, 0.0, 0.0, 0.0, 0.0, 0.0, 0.0, 1.694076838741712E9, 0.0, 2023-09-07 16:53:58.741
99.0, 4010.8193768047545, -33335.101107967035, -4533.581976125476, -10656.30592778992, 1572.8699055755028, 5566.076107749475, 4003.711522067967, 18452.5049868232, 0.032, 1.014, -0.052000000000000005, 192.0, 0.0, 0.0, 0.0, 0.0, 0.0, 0.0, 0.0, 0.0, 0.0, 1.69407683874172E9, 0.0, 2023-09-07 16:53:58.741
100.0, 3640.629785135959, -33689.91269945058, -4847.758096189273, -10456.682498059572, 1181.42380492971, 5243.071048625833, 3636.137084500442, 18677.11766685458, 0.032, 1.014, -0.052000000000000005, 192.0, 0.0, 0.0, 0.0, 0.0, 0.0, 0.0, 0.0, 0.0, 0.0, 1.694076838741728E9, 0.0, 2023-09-07 16:53:58.741
101.0, 3545.1431328228873, -34013.2306829966, -4946.955138081925, -11231.41631262497, 1146.1304004347803, 5110.39109353913, 3588.572572299549, 18647.613364173576, 0.032, 1.014, -0.052000000000000005, 192.0, 0.0, 0.0, 0.0, 0.0, 0.0, 0.0, 0.0, 0.0, 0.0, 1.694076838741737E9, 0.0, 2023-09-07 16:53:58.741
102.0, 3893.5397736477585, -33868.45843415957, -4648.581701348031, -11783.839676837884, 1518.1975386378217, 5426.556518859448, 3992.870926007143, 18523.42707197989, 0.032, 1.014, -0.052000000000000005, 192.0, 0.0, 0.0, 0.0, 0.0, 0.0, 0.0, 0.0, 0.0, 0.0, 1.694076838741745E9, 0.0, 2023-09-07 16:53:58.741
103.0, 4036.4791794394473, -33345.159392971924, -4522.808435298019, -10840.707819546202, 1591.6453709179607, 5594.686340652268, 4074.2312758244607, 18431.851974946498, 0.032, 1.014, -0.052000000000000005, 192.0, 0.0, 0.0, 0.0, 0.0, 0.0, 0.0, 0.0, 0.0, 0.0, 1.694076838741753E9, 0.0, 2023-09-07 16:53:58.741
104.0, 3679.2312478102745, -33584.79244527727, -4794.940924041382, -10375.657424409083, 1236.4761515231314, 5317.167081495176, 3726.304021633151, 18654.900032866008, 0.032, 1.014, -0.052000000000000005, 192.0, 0.0, 0.0, 0.0, 0.0, 0.0, 0.0, 0.0, 0.0, 0.0, 1.694076838741761E9, 0.0, 2023-09-07 16:53:58.741
105.0, 3532.469693716728, -33952.880972967265, -4949.950271838936, -11069.23205485726, 1125.0527054134257, 5121.231689599954, 3600.7989765166017, 18687.5112280263, 0.032, 1.014, -0.052000000000000005, 192.0, 0.0, 0.0, 0.0, 0.0, 0.0, 0.0, 0.0, 0.0, 0.0, 1.694076838741769E9, 0.0, 2023-09-07 16:53:58.741
106.0, 3853.7313167728566, -33903.394210743216, -4686.043225055126, -11759.968013759615, 1462.6311019219283, 5394.414710332717, 3945.5969864841686, 18549.28804031468, 0.048, 1.008, -0.056, 192.0, 1.0, 128.0, 31.0, 128.0, 254.0, 64.0, 0.0, 0.0, 0.0, 1.694076838741777E9, 0.0, 2023-09-07 16:53:58.741
107.0, 4091.2409533549494, -33366.907640326936, -4496.075748929471, -11017.487766443226, 1622.4907782662845, 5615.652276951347, 4085.3177410742933, 18430.153242367895, 0.048, 1.008, -0.056, 192.0, 0.0, 0.0, 0.0, 0.0, 0.0, 0.0, 0.0, 0.0, 0.0, 1.694076838801271E9, 0.0, 2023-09-07 16:53:58.801
108.0, 3757.618815615036, -33511.94811009742, -4750.438600830866, -10340.721647825438, 1277.133974687335, 5376.466259535106, 3765.5983883855806, 18621.21595397186, 0.048, 1.008, -0.056, 192.0, 0.0, 0.0, 0.0, 0.0, 0.0, 0.0, 0.0, 0.0, 0.0, 1.694076838801308E9, 0.0, 2023-09-07 16:53:58.801
109.0, 3522.6349261563932, -33930.77509770097, -4974.447783761952, -10954.053515679065, 1104.4220452811774, 5115.710808719494, 3568.6571679898702, 18718.311931885713, 0.048, 1.008, -0.056, 192.0, 0.0, 0.0, 0.0, 0.0, 0.0, 0.0, 0.0, 0.0, 0.0, 1.69407683880132E9, 0.0, 2023-09-07 16:53:58.801
110.0, 3750.1309812225086, -33977.13261570127, -4771.13631619648, -11742.734818784575, 1396.7828627565937, 5308.941639535623, 3859.1180871865854, 18585.229645398813, 0.048, 1.008, -0.056, 192.0, 0.0, 0.0, 0.0, 0.0, 0.0, 0.0, 0.0, 0.0, 0.0, 1.694076838801331E9, 0.0, 2023-09-07 16:53:58.801
111.0, 4075.9747118919745, -33445.7422430208, -4494.958161706706, -11234.74672254881, 1664.5120578422616, 5619.094445597464, 4116.654886800634, 18463.859673006496, 0.048, 1.008, -0.056, 192.0, 0.0, 0.0, 0.0, 0.0, 0.0, 0.0, 0.0, 0.0, 0.0, 1.694076838801416E9, 0.0, 2023-09-07 16:53:58.801
112.0, 3840.208511377396, -33418.71898397434, -4687.205515766802, -10325.097778451178, 1357.6226064708958, 5434.26787069653, 3827.915051926977, 18583.4862093313, 0.048, 1.008, -0.056, 192.0, 0.0, 0.0, 0.0, 0.0, 0.0, 0.0, 0.0, 0.0, 0.0, 1.694076838801426E9, 0.0, 2023-09-07 16:53:58.801
113.0, 3537.543539708083, -33856.612009598255, -4939.064972289201, -10785.811935163967, 1116.1567111202135, 5145.013945700401, 3582.09056640751, 18736.66271408352, 0.048, 1.008, -0.056, 192.0, 0.0, 0.0, 0.0, 0.0, 0.0, 0.0, 0.0, 0.0, 0.0, 1.694076838801437E9, 0.0, 2023-09-07 16:53:58.801
114.0, 3743.3807543970056, -33979.948935502645, -4797.913706053938, -11617.810919023863, 1354.359251780421, 5281.001958966489, 3828.205624604896, 18626.245096474304, 0.048, 1.008, -0.056, 192.0, 0.0, 0.0, 0.0, 0.0, 0.0, 0.0, 0.0, 0.0, 0.0, 1.694076838801448E9, 0.0, 2023-09-07 16:53:58.801
115.0, 4091.2186016104943, -33507.74598213982, -4496.299266374024, -11395.299302971282, 1659.795839762192, 5610.466672237715, 4153.8928930631755, 18491.777001831175, 0.048, 1.008, -0.056, 192.0, 0.0, 0.0, 0.0, 0.0, 0.0, 0.0, 0.0, 0.0, 0.0, 1.694076838801459E9, 0.0, 2023-09-07 16:53:58.801
116.0, 3880.039319996753, -33355.03886402117, -4651.174503704847, -10373.064622052267, 1412.5855460864957, 5469.315406002451, 3886.454270655426, 18535.944048874862, 0.064, 1.01, -0.068, 192.0, 2.0, 0.0, 31.0, 144.0, 253.0, 224.0, 0.0, 0.0, 0.0, 1.694076838801471E9, 0.0, 2023-09-07 16:53:58.801
117.0, 3549.859350902957, -33821.36330859224, -4941.389553712554, -10676.35544256633, 1116.3578768203113, 5151.071268447789, 3593.75817701318, 18742.02713275279, 0.064, 1.01, -0.068, 192.0, 0.0, 0.0, 0.0, 0.0, 0.0, 0.0, 0.0, 0.0, 0.0, 1.694076838801483E9, 0.0, 2023-09-07 16:53:58.801
118.0, 3656.208951021308, -34013.34244171887, -4866.354747576088, -11517.540993397355, 1285.2253061801562, 5208.0011615754565, 3729.880300746, 18622.333541194625, 0.064, 1.01, -0.068, 192.0, 0.0, 0.0, 0.0, 0.0, 0.0, 0.0, 0.0, 0.0, 0.0, 1.694076838801494E9, 0.0, 2023-09-07 16:53:58.801
119.0, 4024.6327548781346, -33627.32781497572, -4548.870569332907, -11576.460191781545, 1648.7764297457254, 5559.437639646249, 4078.1651828485947, 18489.65358610792, 0.064, 1.01, -0.068, 192.0, 0.0, 0.0, 0.0, 0.0, 0.0, 0.0, 0.0, 0.0, 0.0, 1.694076838801505E9, 0.0, 2023-09-07 16:53:58.801
120.0, 3939.584367225691, -33328.48499160826, -4624.441817336299, -10480.665919860116, 1471.1694683038556, 5518.064560659476, 3927.894404875565, 18484.624443605477, 0.064, 1.01, -0.068, 192.0, 0.0, 0.0, 0.0, 0.0, 0.0, 0.0, 0.0, 0.0, 0.0, 1.694076838801516E9, 0.0, 2023-09-07 16:53:58.801
121.0, 3584.951589697789, -33749.18952574606, -4909.717131819383, -10564.596720289794, 1134.7980659959396, 5205.408359218641, 3631.4208664203725, 18718.4683940969, 0.064, 1.01, -0.068, 192.0, 0.0, 0.0, 0.0, 0.0, 0.0, 0.0, 0.0, 0.0, 0.0, 1.694076838801527E9, 0.0, 2023-09-07 16:53:58.801
122.0, 3610.1867091878307, -34013.11892427432, -4919.708361590906, -11400.59666640719, 1205.3178197524333, 5157.977957484479, 3671.4081372509168, 18631.967143054862, 0.064, 1.01, -0.068, 192.0, 0.0, 0.0, 0.0, 0.0, 0.0, 0.0, 0.0, 0.0, 0.0, 1.694076838861622E9, 0.0, 2023-09-07 16:53:58.861
123.0, 3992.334484140216, -33730.34700517023, -4584.946284883772, -11707.307303822912, 1629.822150447625, 5511.80607221199, 4066.385813520648, 18491.75465008672, 0.064, 1.01, -0.068, 192.0, 0.0, 0.0, 0.0, 0.0, 0.0, 0.0, 0.0, 0.0, 0.0, 1.694076838861684E9, 0.0, 2023-09-07 16:53:58.861
124.0, 4001.074016222241, -33299.40537207191, -4557.431287459289, -10608.607305122294, 1575.6415218879608, 5574.033328775565, 4022.4646356659696, 18461.400981116414, 0.064, 1.01, -0.068, 192.0, 0.0, 0.0, 0.0, 0.0, 0.0, 0.0, 0.0, 0.0, 0.0, 1.694076838861692E9, 0.0, 2023-09-07 16:53:58.861
125.0, 3613.1594912003866, -33696.57351929826, -4877.4188610814645, -10480.420050671108, 1190.7444823675733, 5237.393705534185, 3664.8814278699674, 18709.08066142567, 0.064, 1.01, -0.068, 192.0, 0.0, 0.0, 0.0, 0.0, 0.0, 0.0, 0.0, 0.0, 0.0, 1.694076838861701E9, 0.0, 2023-09-07 16:53:58.861
126.0, 3563.6727289763367, -34007.86626432732, -4947.804504371226, -11270.665975888489, 1178.9651130396264, 5130.507663548907, 3640.8533025805123, 18660.555024213198, 0.08600000000000001, 1.04, -0.07, 192.0, 2.0, 176.0, 32.0, 128.0, 253.0, 208.0, 0.0, 0.0, 0.0, 1.694076838861709E9, 0.0, 2023-09-07 16:53:58.861
127.0, 3938.1538555805514, -33822.12326790372, -4622.519567313143, -11768.551083630453, 1579.9777603122902, 5475.864467127856, 4016.9214030410535, 18530.28905752767, 0.08600000000000001, 1.04, -0.07, 192.0, 0.0, 0.0, 0.0, 0.0, 0.0, 0.0, 0.0, 0.0, 0.0, 1.694076838861825E9, 0.0, 2023-09-07 16:53:58.861
128.0, 4068.263360054894, -33293.88449119145, -4506.581068823465, -10769.875141367334, 1626.6929062238821, 5620.435550264782, 4070.1409065891394, 18460.573966571566, 0.08600000000000001, 1.04, -0.07, 192.0, 0.0, 0.0, 0.0, 0.0, 0.0, 0.0, 0.0, 0.0, 0.0, 1.694076838861839E9, 0.0, 2023-09-07 16:53:58.861
129.0, 3700.890088187467, -33581.394980120065, -4791.744624584273, -10377.62437792115, 1260.1242971568463, 5329.594651412327, 3725.4546553438495, 18679.866931422584, 0.08600000000000001, 1.04, -0.07, 192.0, 0.0, 0.0, 0.0, 0.0, 0.0, 0.0, 0.0, 0.0, 0.0, 1.694076838861858E9, 0.0, 2023-09-07 16:53:58.861
130.0, 3580.7494617401912, -33938.486449538046, -4928.7161146063945, -11100.39038662796, 1162.2460081870565, 5150.8924544921465, 3642.3955729479285, 18686.728916970365, 0.08600000000000001, 1.04, -0.07, 192.0, 0.0, 0.0, 0.0, 0.0, 0.0, 0.0, 0.0, 0.0, 0.0, 1.69407683886187E9, 0.0, 2023-09-07 16:53:58.861
131.0, 3890.72345384639, -33871.69943710559, -4655.510742129176, -11767.321737685412, 1507.1334251324447, 5422.756722302047, 4012.0710744942517, 18561.20152010936, 0.08600000000000001, 1.04, -0.07, 192.0, 0.0, 0.0, 0.0, 0.0, 0.0, 0.0, 0.0, 0.0, 0.0, 1.694076838861883E9, 0.0, 2023-09-07 16:53:58.861
132.0, 4095.4430813125473, -33349.4732796518, -4490.085481415449, -10974.79593453359, 1649.9163687129462, 5639.412181307338, 4115.000857710941, 18456.841225247532, 0.08600000000000001, 1.04, -0.07, 192.0, 0.0, 0.0, 0.0, 0.0, 0.0, 0.0, 0.0, 0.0, 0.0, 1.694076838861894E9, 0.0, 2023-09-07 16:53:58.861
133.0, 3766.5148099082485, -33525.806191659714, -4752.94199620986, -10349.461179907463, 1293.3836929063432, 5380.310759581418, 3770.3146064656507, 18649.714428152376, 0.08600000000000001, 1.04, -0.07, 192.0, 0.0, 0.0, 0.0, 0.0, 0.0, 0.0, 0.0, 0.0, 0.0, 1.694076838861905E9, 0.0, 2023-09-07 16:53:58.861
134.0, 3551.423973014829, -33924.44955402012, -4931.867710574593, -10971.532579843115, 1135.1109904183138, 5125.500872790918, 3642.4179246923836, 18719.22835340838, 0.08600000000000001, 1.04, -0.07, 192.0, 0.0, 0.0, 0.0, 0.0, 0.0, 0.0, 0.0, 0.0, 0.0, 1.694076838861916E9, 0.0, 2023-09-07 16:53:58.861
135.0, 3826.037505392731, -33924.784830186945, -4701.085949073547, -11733.70471402463, 1453.9362733288137, 5361.848218661335, 3964.685376249001, 18602.596950840587, 0.08600000000000001, 1.04, -0.07, 192.0, 0.0, 0.0, 0.0, 0.0, 0.0, 0.0, 0.0, 0.0, 0.0, 1.694076838861927E9, 0.0, 2023-09-07 16:53:58.861
136.0, 4082.0767381282735, -33401.21756806583, -4471.622940495365, -11172.385355518503, 1671.9775404903341, 5652.979690191709, 4156.843323331275, 18461.669202049878, 0.074, 1.048, -0.054, 192.0, 2.0, 80.0, 32.0, 192.0, 254.0, 80.0, 0.0, 0.0, 0.0, 1.694076838861938E9, 0.0, 2023-09-07 16:53:58.861
137.0, 3778.361234469561, -33442.21066739687, -4693.843983870028, -10337.972383257436, 1361.064775117013, 5439.40877192125, 3833.9053194409994, 18583.977947709318, 0.074, 1.048, -0.054, 192.0, 0.0, 0.0, 0.0, 0.0, 0.0, 0.0, 0.0, 0.0, 0.0, 1.694076838921857E9, 0.0, 2023-09-07 16:53:58.921
138.0, 3507.6816091157925, -33886.27277449045, -4935.734562365361, -10847.793322538535, 1114.3238680748782, 5154.78165802737, 3613.248898178208, 18717.17199291849, 0.074, 1.048, -0.054, 192.0, 0.0, 0.0, 0.0, 0.0, 0.0, 0.0, 0.0, 0.0, 0.0, 1.694076838921881E9, 0.0, 2023-09-07 16:53:58.921
139.0, 3724.985268710288, -33982.809958792925, -4773.013862730725, -11674.159666795691, 1364.6187024854069, 5307.578183123849, 3888.7341485898673, 18595.4890961038, 0.074, 1.048, -0.054, 192.0, 0.0, 0.0, 0.0, 0.0, 0.0, 0.0, 0.0, 0.0, 0.0, 1.694076838921889E9, 0.0, 2023-09-07 16:53:58.921
140.0, 4088.1787643645725, -33502.5603774262, -4477.590856264932, -11370.198293947971, 1662.8803804970241, 5640.038030152086, 4181.564352698845, 18469.604071331512, 0.074, 1.048, -0.054, 192.0, 0.0, 0.0, 0.0, 0.0, 0.0, 0.0, 0.0, 0.0, 0.0, 1.694076838921896E9, 0.0, 2023-09-07 16:53:58.921
141.0, 3856.0782499406637, -33395.89785288547, -4645.295994913101, -10374.316319741765, 1402.9742959707137, 5497.27743831604, 3903.754520863834, 18541.06259835513, 0.074, 1.048, -0.054, 192.0, 0.0, 0.0, 0.0, 0.0, 0.0, 0.0, 0.0, 0.0, 0.0, 1.694076838921903E9, 0.0, 2023-09-07 16:53:58.921
142.0, 3528.7816558816025, -33836.38368086621, -4907.459605629398, -10717.527355853004, 1121.7893507229508, 5198.434614948585, 3666.6472156819364, 18740.015475751814, 0.074, 1.048, -0.054, 192.0, 0.0, 0.0, 0.0, 0.0, 0.0, 0.0, 0.0, 0.0, 0.0, 1.694076838921933E9, 0.0, 2023-09-07 16:53:58.921
143.0, 3657.1030207995204, -34005.27346197051, -4815.392770217988, -11559.785790417885, 1306.8170913239828, 5260.99714767899, 3842.2201683783733, 18619.628980115533, 0.074, 1.048, -0.054, 192.0, 0.0, 0.0, 0.0, 0.0, 0.0, 0.0, 0.0, 0.0, 0.0, 1.69407683892194E9, 0.0, 2023-09-07 16:53:58.921
144.0, 4043.7211446429665, -33602.852654797156, -4498.825013497474, -11534.215394761015, 1640.081601152611, 5601.302457011039, 4175.887009607197, 18493.118106498492, 0.074, 1.048, -0.054, 192.0, 0.0, 0.0, 0.0, 0.0, 0.0, 0.0, 0.0, 0.0, 0.0, 1.694076838921947E9, 0.0, 2023-09-07 16:53:58.921
145.0, 3896.490203915859, -33352.73663434227, -4602.4700525367325, -10442.377381608174, 1452.639872150406, 5517.416360070272, 3971.5697135412356, 18501.23178973577, 0.074, 1.048, -0.054, 192.0, 0.0, 0.0, 0.0, 0.0, 0.0, 0.0, 0.0, 0.0, 0.0, 1.694076838921955E9, 0.0, 2023-09-07 16:53:58.921
146.0, 3543.3549932664628, -33784.17000581861, -4882.604465795096, -10591.552924102894, 1134.3733828512886, 5199.149870771154, 3698.3866928084726, 18727.744368045853, 0.048, 1.014, -0.032, 192.0, 1.0, 128.0, 31.0, 176.0, 255.0, 0.0, 0.0, 0.0, 0.0, 1.694076838921962E9, 0.0, 2023-09-07 16:53:58.921
147.0, 3613.673581322859, -33993.94112753167, -4838.169197817945, -11410.699654900987, 1254.4022505762878, 5193.9195625686125, 3820.337810556628, 18635.901050078995, 0.048, 1.014, -0.032, 192.0, 0.0, 0.0, 0.0, 0.0, 0.0, 0.0, 0.0, 0.0, 0.0, 1.694076838921972E9, 0.0, 2023-09-07 16:53:58.921
148.0, 3982.969103213442, -33707.48117059245, -4530.050400501537, -11651.942032807117, 1627.27405157972, 5550.04990697502, 4161.470134433524, 18478.164789457893, 0.048, 1.014, -0.032, 192.0, 0.0, 0.0, 0.0, 0.0, 0.0, 0.0, 0.0, 0.0, 0.0, 1.694076838921981E9, 0.0, 2023-09-07 16:53:58.921
149.0, 3976.9564839549644, -33313.88930247895, -4537.4935314051545, -10541.239147333998, 1523.7854747516483, 5564.153857726319, 4062.384851263148, 18451.096826922516, 0.048, 1.014, -0.032, 192.0, 0.0, 0.0, 0.0, 0.0, 0.0, 0.0, 0.0, 0.0, 0.0, 1.69407683892199E9, 0.0, 2023-09-07 16:53:58.921
150.0, 3603.4588341067833, -33699.21102514399, -4837.409238506465, -10470.808800555325, 1151.6959848041517, 5253.464609797551, 3730.1932251683743, 18690.12638212757, 0.048, 1.014, -0.032, 192.0, 0.0, 0.0, 0.0, 0.0, 0.0, 0.0, 0.0, 0.0, 0.0, 1.694076838921999E9, 0.0, 2023-09-07 16:53:58.921
151.0, 3606.6327818194372, -33964.50388008403, -4862.666709740962, -11255.019754769773, 1193.8960783357713, 5206.0118563189335, 3783.010397316265, 18654.050666576706, 0.048, 1.014, -0.032, 192.0, 0.0, 0.0, 0.0, 0.0, 0.0, 0.0, 0.0, 0.0, 0.0, 1.694076838922008E9, 0.0, 2023-09-07 16:53:58.922
152.0, 3976.0847659212072, -33781.91247962862, -4533.917252292305, -11712.850536447828, 1612.8795281505024, 5519.405665326794, 4120.186462424572, 18509.7701561177, 0.048, 1.014, -0.032, 192.0, 0.0, 0.0, 0.0, 0.0, 0.0, 0.0, 0.0, 0.0, 0.0, 1.694076838982185E9, 0.0, 2023-09-07 16:53:58.982
153.0, 4028.745475857911, -33310.9612239553, -4482.284722600547, -10691.934608451678, 1606.9339641253907, 5619.586183975481, 4093.4761278004803, 18426.286390577126, 0.048, 1.014, -0.032, 192.0, 0.0, 0.0, 0.0, 0.0, 0.0, 0.0, 0.0, 0.0, 0.0, 1.694076838982213E9, 0.0, 2023-09-07 16:53:58.982
154.0, 3648.6764131398695, -33614.02852702481, -4773.259731919734, -10374.830409864237, 1245.5062562830753, 5312.070883759366, 3744.855969531056, 18663.348992270112, 0.048, 1.014, -0.032, 192.0, 0.0, 0.0, 0.0, 0.0, 0.0, 0.0, 0.0, 0.0, 0.0, 1.694076838982221E9, 0.0, 2023-09-07 16:53:58.982
155.0, 3539.063458331044, -33970.091816197855, -4900.083529959146, -11133.49332016627, 1172.9077902922381, 5139.135436908655, 3693.715178217313, 18649.69207640792, 0.048, 1.014, -0.032, 192.0, 0.0, 0.0, 0.0, 0.0, 0.0, 0.0, 0.0, 0.0, 0.0, 1.694076838982228E9, 0.0, 2023-09-07 16:53:58.982
156.0, 3882.4086049090156, -33871.87825106124, -4601.710093225252, -11747.22751942009, 1548.730021563771, 5454.160923261753, 4083.0155113953965, 18525.259915025224, 0.026000000000000002, 0.97, -0.028, 192.0, 0.0, 208.0, 30.0, 80.0, 255.0, 32.0, 0.0, 0.0, 0.0, 1.694076838982235E9, 0.0, 2023-09-07 16:53:58.982
157.0, 4059.6579384396005, -33344.667654593904, -4458.211893822181, -10871.687337361258, 1638.9640139298456, 5654.387850092394, 4157.335061709293, 18426.420501043856, 0.026000000000000002, 0.97, -0.028, 192.0, 0.0, 0.0, 0.0, 0.0, 0.0, 0.0, 0.0, 0.0, 0.0, 1.694076838982243E9, 0.0, 2023-09-07 16:53:58.982
158.0, 3703.9746289222994, -33542.77116570129, -4730.679658732374, -10312.983132956402, 1280.4643846111758, 5366.944416397145, 3816.6944762104126, 18639.276163491748, 0.026000000000000002, 0.97, -0.028, 192.0, 0.0, 0.0, 0.0, 0.0, 0.0, 0.0, 0.0, 0.0, 0.0, 1.694076838982293E9, 0.0, 2023-09-07 16:53:58.982
159.0, 3524.8477488574686, -33938.79937396042, -4905.023265483769, -10978.036937479608, 1151.8747987597942, 5144.633966044661, 3678.3148262876066, 18690.931044927962, 0.026000000000000002, 0.97, -0.028, 192.0, 0.0, 0.0, 0.0, 0.0, 0.0, 0.0, 0.0, 0.0, 0.0, 1.6940768389823E9, 0.0, 2023-09-07 16:53:58.982
160.0, 3809.676028451446, -33941.280417594964, -4670.754631847695, -11721.567716785397, 1467.928465357836, 5380.154297370231, 3997.810661531766, 18558.876938686008, 0.026000000000000002, 0.97, -0.028, 192.0, 0.0, 0.0, 0.0, 0.0, 0.0, 0.0, 0.0, 0.0, 0.0, 1.694076838982307E9, 0.0, 2023-09-07 16:53:58.982
161.0, 4077.4946305149356, -33384.386704490986, -4433.110884798871, -11062.750048965223, 1671.4187468789514, 5651.191550635284, 4199.870431407742, 18434.668294747866, 0.026000000000000002, 0.97, -0.028, 192.0, 0.0, 0.0, 0.0, 0.0, 0.0, 0.0, 0.0, 0.0, 0.0, 1.694076838982314E9, 0.0, 2023-09-07 16:53:58.982
162.0, 3763.2961587066843, -33452.31365589066, -4669.435878924833, -10274.26991155981, 1342.3116615190104, 5421.952059501656, 3863.2084564219067, 18601.524067106733, 0.026000000000000002, 0.97, -0.028, 192.0, 0.0, 0.0, 0.0, 0.0, 0.0, 0.0, 0.0, 0.0, 0.0, 1.694076838982321E9, 0.0, 2023-09-07 16:53:58.982
163.0, 3537.6105949414487, -33891.83835885982, -4899.390625881031, -10839.299659645518, 1143.1129149333137, 5133.502797305918, 3644.116657270987, 18711.718167271396, 0.026000000000000002, 0.97, -0.028, 192.0, 0.0, 0.0, 0.0, 0.0, 0.0, 0.0, 0.0, 0.0, 0.0, 1.694076838982329E9, 0.0, 2023-09-07 16:53:58.982
164.0, 3767.073603519631, -33966.00144696253, -4711.323048034078, -11650.265651972968, 1410.2386129186884, 5305.968857523067, 3946.647518473568, 18565.604813767055, 0.026000000000000002, 0.97, -0.028, 192.0, 0.0, 0.0, 0.0, 0.0, 0.0, 0.0, 0.0, 0.0, 0.0, 1.694076838982336E9, 0.0, 2023-09-07 16:53:58.982
165.0, 4073.873647913176, -33464.6965223189, -4434.228472021637, -11266.665013630989, 1699.6042966370937, 5670.749327033678, 4203.603172731778, 18452.192062400827, 0.026000000000000002, 0.97, -0.028, 192.0, 0.0, 0.0, 0.0, 0.0, 0.0, 0.0, 0.0, 0.0, 0.0, 1.694076838982343E9, 0.0, 2023-09-07 16:53:58.982
166.0, 3847.875159725566, -33374.01549506372, -4607.096863638981, -10289.714966978427, 1412.2726216641215, 5519.137444393331, 3930.554262465747, 18559.413380552935, 0.032, 0.988, -0.024, 192.0, 1.0, 0.0, 30.0, 224.0, 255.0, 64.0, 0.0, 0.0, 0.0, 1.69407683898235E9, 0.0, 2023-09-07 16:53:58.982
167.0, 3531.553272194061, -33834.19320990959, -4878.87172447106, -10701.434099845184, 1136.4520950856322, 5202.390873717174, 3673.3750907629837, 18739.903717029538, 0.032, 0.988, -0.024, 192.0, 0.0, 0.0, 0.0, 0.0, 0.0, 0.0, 0.0, 0.0, 0.0, 1.694076839042457E9, 0.0, 2023-09-07 16:53:59.042
168.0, 3661.9309976018667, -34007.32982246039, -4789.934133283393, -11564.546711986866, 1330.3758299798765, 5271.61422629526, 3846.846979480622, 18607.112003220558, 0.032, 0.988, -0.024, 192.0, 0.0, 0.0, 0.0, 0.0, 0.0, 0.0, 0.0, 0.0, 0.0, 1.69407683904248E9, 0.0, 2023-09-07 16:53:59.042
169.0, 4030.779484603344, -33586.04414296677, -4475.378033563857, -11467.115457906182, 1678.7948225492028, 5607.2703727806065, 4154.6305006302, 18461.51273983869, 0.032, 0.988, -0.024, 192.0, 0.0, 0.0, 0.0, 0.0, 0.0, 0.0, 0.0, 0.0, 0.0, 1.694076839042489E9, 0.0, 2023-09-07 16:53:59.042
170.0, 3898.7253783613896, -33346.65695985043, -4576.184401057291, -10373.601063919195, 1464.441593222808, 5529.374543353862, 3951.1402191090847, 18500.494182168746, 0.032, 0.988, -0.024, 192.0, 0.0, 0.0, 0.0, 0.0, 0.0, 0.0, 0.0, 0.0, 0.0, 1.694076839042497E9, 0.0, 2023-09-07 16:53:59.042
171.0, 3575.6979674932923, -33772.59180219076, -4846.707564199873, -10575.929054728635, 1167.4763163895984, 5212.002123832956, 3683.5451344901485, 18732.907621015027, 0.032, 0.988, -0.024, 192.0, 0.0, 0.0, 0.0, 0.0, 0.0, 0.0, 0.0, 0.0, 0.0, 1.694076839042505E9, 0.0, 2023-09-07 16:53:59.042
172.0, 3661.81923887959, -33985.64863033874, -4801.087653766591, -11415.617038681155, 1296.1553092188012, 5233.102170598766, 3831.6701449954685, 18650.60849793059, 0.032, 0.988, -0.024, 192.0, 0.0, 0.0, 0.0, 0.0, 0.0, 0.0, 0.0, 0.0, 0.0, 1.694076839042513E9, 0.0, 2023-09-07 16:53:59.042
173.0, 4047.2750720113604, -33663.71645494896, -4481.390652822334, -11589.647721010175, 1664.7132235423594, 5604.2752390235955, 4168.10860253675, 18506.864429338508, 0.032, 0.988, -0.024, 192.0, 0.0, 0.0, 0.0, 0.0, 0.0, 0.0, 0.0, 0.0, 0.0, 1.694076839042521E9, 0.0, 2023-09-07 16:53:59.042
174.0, 3974.095460664685, -33320.95245372682, -4529.13397897887, -10490.813611842825, 1537.7553150362153, 5562.410421658805, 4024.833920578232, 18472.107466710506, 0.032, 0.988, -0.024, 192.0, 0.0, 0.0, 0.0, 0.0, 0.0, 0.0, 0.0, 0.0, 0.0, 1.694076839042551E9, 0.0, 2023-09-07 16:53:59.042
175.0, 3590.606581044982, -33728.760031313905, -4837.275128039733, -10489.226637986498, 1181.267342718523, 5225.681391439604, 3696.039759640665, 18715.98735046236, 0.032, 0.988, -0.024, 192.0, 0.0, 0.0, 0.0, 0.0, 0.0, 0.0, 0.0, 0.0, 0.0, 1.694076839042558E9, 0.0, 2023-09-07 16:53:59.042
176.0, 3587.119708909954, -33991.99652576405, -4860.409183550976, -11300.393796014047, 1227.5354537410085, 5186.11880375371, 3732.6966205473686, 18651.904899108995, 0.044, 1.002, -0.03, 192.0, 1.0, 96.0, 31.0, 80.0, 255.0, 16.0, 0.0, 0.0, 0.0, 1.694076839042566E9, 0.0, 2023-09-07 16:53:59.042
177.0, 3982.3656061131487, -33745.36737744419, -4518.718066062697, -11674.383184240245, 1635.1418656279882, 5552.218026187185, 4126.556709594334, 18524.075272569095, 0.044, 1.002, -0.03, 192.0, 0.0, 0.0, 0.0, 0.0, 0.0, 0.0, 0.0, 0.0, 0.0, 1.694076839042575E9, 0.0, 2023-09-07 16:53:59.042
178.0, 4047.833865622743, -33271.93507813634, -4458.435411266734, -10597.766709061469, 1619.6744584649157, 5644.664841254335, 4101.165127893106, 18466.85480676351, 0.044, 1.002, -0.03, 192.0, 0.0, 0.0, 0.0, 0.0, 0.0, 0.0, 0.0, 0.0, 0.0, 1.694076839042582E9, 0.0, 2023-09-07 16:53:59.042
179.0, 3661.8415906240452, -33623.17039050703, -4772.700938308351, -10365.15210451509, 1239.9853754026146, 5309.634543613737, 3738.6421845724803, 18704.006815434317, 0.044, 1.002, -0.03, 192.0, 0.0, 0.0, 0.0, 0.0, 0.0, 0.0, 0.0, 0.0, 0.0, 1.69407683904259E9, 0.0, 2023-09-07 16:53:59.042
180.0, 3578.737804739214, -33954.64676077924, -4870.668634255962, -11141.539948170179, 1203.9320115962043, 5172.350129169242, 3711.9318499483884, 18690.059326894203, 0.044, 1.002, -0.03, 192.0, 0.0, 0.0, 0.0, 0.0, 0.0, 0.0, 0.0, 0.0, 0.0, 1.694076839042598E9, 0.0, 2023-09-07 16:53:59.042
181.0, 3933.5493962227583, -33820.133962647196, -4566.550799197054, -11709.765995712996, 1580.670664390405, 5518.355133337394, 4114.084436188274, 18584.00029945377, 0.044, 1.002, -0.03, 192.0, 0.0, 0.0, 0.0, 0.0, 0.0, 0.0, 0.0, 0.0, 0.0, 1.694076839042606E9, 0.0, 2023-09-07 16:53:59.042
182.0, 4082.6802352285667, -33323.09822119454, -4457.854265910896, -10805.906153429289, 1638.5169790407394, 5661.093373428986, 4141.130046979195, 18461.378629371957, 0.044, 1.002, -0.03, 192.0, 0.0, 0.0, 0.0, 0.0, 0.0, 0.0, 0.0, 0.0, 0.0, 1.694076839101841E9, 0.0, 2023-09-07 16:53:59.101
183.0, 3730.59555656857, -33551.30953208322, -4732.758370966718, -10314.033664945802, 1284.644160824318, 5371.68298622167, 3786.7431386403014, 18671.037992362737, 0.044, 1.002, -0.03, 192.0, 0.0, 0.0, 0.0, 0.0, 0.0, 0.0, 0.0, 0.0, 0.0, 1.694076839101867E9, 0.0, 2023-09-07 16:53:59.101
184.0, 3569.3277203235293, -33915.352394026806, -4891.835736255138, -11002.89207731391, 1164.816458799417, 5180.21794321751, 3686.1602885914194, 18728.32551340169, 0.044, 1.002, -0.03, 192.0, 0.0, 0.0, 0.0, 0.0, 0.0, 0.0, 0.0, 0.0, 0.0, 1.694076839101875E9, 0.0, 2023-09-07 16:53:59.101
185.0, 3868.3717093910827, -33900.26496651948, -4641.920881500349, -11717.3655888278, 1513.2130996242881, 5430.8257020504125, 4024.6327548781346, 18587.6883372889, 0.044, 1.002, -0.03, 192.0, 0.0, 0.0, 0.0, 0.0, 0.0, 0.0, 0.0, 0.0, 0.0, 1.694076839101882E9, 0.0, 2023-09-07 16:53:59.101
186.0, 4116.498424589447, -33335.101107967035, -4419.833948592419, -10992.27499869764, 1713.7976543662137, 5687.535487119614, 4192.203783059572, 18472.018059732683, 0.05, 1.012, -0.034, 192.0, 1.0, 144.0, 31.0, 160.0, 254.0, 240.0, 0.0, 0.0, 0.0, 1.694076839101889E9, 0.0, 2023-09-07 16:53:59.101
187.0, 3778.204772258374, -33453.878278002536, -4675.046166783115, -10265.351565522144, 1352.8169814130047, 5439.788751576991, 3844.947081201921, 18638.292686735713, 0.05, 1.012, -0.034, 192.0, 0.0, 0.0, 0.0, 0.0, 0.0, 0.0, 0.0, 0.0, 0.0, 1.694076839101896E9, 0.0, 2023-09-07 16:53:59.101
188.0, 3548.3170805355408, -33890.877233848245, -4895.6131810680845, -10862.746639579134, 1153.6629383162187, 5162.6941755645485, 3659.62876792297, 18736.50625187233, 0.05, 1.012, -0.034, 192.0, 0.0, 0.0, 0.0, 0.0, 0.0, 0.0, 0.0, 0.0, 0.0, 1.694076839101903E9, 0.0, 2023-09-07 16:53:59.101
189.0, 3793.426310232438, -33943.157964129205, -4692.2793617581565, -11654.713649119574, 1442.7604011011604, 5365.335090796362, 3960.036213402297, 18614.935113779917, 0.05, 1.012, -0.034, 192.0, 0.0, 0.0, 0.0, 0.0, 0.0, 0.0, 0.0, 0.0, 0.0, 1.69407683910191E9, 0.0, 2023-09-07 16:53:59.101
190.0, 4094.0796249007735, -33437.13682140551, -4434.54139644401, -11203.968370433853, 1698.3078954586858, 5658.947605961276, 4193.209611560061, 18485.09383023904, 0.05, 1.012, -0.034, 192.0, 0.0, 0.0, 0.0, 0.0, 0.0, 0.0, 0.0, 0.0, 0.0, 1.694076839101941E9, 0.0, 2023-09-07 16:53:59.101
191.0, 3841.61667127808, -33391.76278016124, -4623.6595062803635, -10277.46621101692, 1415.1783484433113, 5482.413528253261, 3903.9333348194764, 18586.414287854946, 0.05, 1.012, -0.034, 192.0, 0.0, 0.0, 0.0, 0.0, 0.0, 0.0, 0.0, 0.0, 0.0, 1.694076839101949E9, 0.0, 2023-09-07 16:53:59.101
192.0, 3542.4832752327056, -33854.19802119709, -4893.176840922456, -10735.699324095169, 1145.1469236787468, 5174.674710592593, 3643.1331805149534, 18740.060179240725, 0.05, 1.012, -0.034, 192.0, 0.0, 0.0, 0.0, 0.0, 0.0, 0.0, 0.0, 0.0, 0.0, 1.694076839101956E9, 0.0, 2023-09-07 16:53:59.101
193.0, 3697.3808643079838, -34004.468799170114, -4776.165458698923, -11588.999520420972, 1355.901522147837, 5284.868810757257, 3856.6593952965018, 18616.142107980504, 0.05, 1.012, -0.034, 192.0, 0.0, 0.0, 0.0, 0.0, 0.0, 0.0, 0.0, 0.0, 0.0, 1.694076839101963E9, 0.0, 2023-09-07 16:53:59.101
194.0, 4069.515057744391, -33541.966502900905, -4453.383917019834, -11403.234172252915, 1698.821985581158, 5639.479236540704, 4186.30292252337, 18488.781868074166, 0.05, 1.012, -0.034, 192.0, 0.0, 0.0, 0.0, 0.0, 0.0, 0.0, 0.0, 0.0, 0.0, 1.694076839101969E9, 0.0, 2023-09-07 16:53:59.101
195.0, 3895.1490992485406, -33347.46162265082, -4575.782069657096, -10335.401932645074, 1469.2248665362438, 5529.709819520691, 3957.6222250011238, 18540.48145299929, 0.042, 1.01, -0.034, 192.0, 1.0, 80.0, 31.0, 144.0, 254.0, 240.0, 0.0, 0.0, 0.0, 1.694076839101976E9, 0.0, 2023-09-07 16:53:59.101
196.0, 3549.121743335932, -33809.583939264296, -4864.723070230851, -10618.665590127182, 1157.5968453403527, 5205.542469685372, 3667.720099415791, 18743.07766474219, 0.042, 1.01, -0.034, 192.0, 0.0, 0.0, 0.0, 0.0, 0.0, 0.0, 0.0, 0.0, 0.0, 1.694076839101983E9, 0.0, 2023-09-07 16:53:59.101
197.0, 3668.792983149646, -34004.84877882586, -4785.977874514803, -11459.515864791378, 1332.9462805922367, 5260.348947089786, 3828.563252516181, 18653.111893309582, 0.042, 1.01, -0.034, 192.0, 0.0, 0.0, 0.0, 0.0, 0.0, 0.0, 0.0, 0.0, 0.0, 1.694076839161562E9, 0.0, 2023-09-07 16:53:59.161
198.0, 4044.816380121277, -33651.0430158428, -4455.954367632195, -11553.28143278139, 1703.046465283211, 5617.216899063218, 4185.274742278426, 18523.315313257615, 0.042, 1.01, -0.034, 192.0, 0.0, 0.0, 0.0, 0.0, 0.0, 0.0, 0.0, 0.0, 0.0, 1.694076839161612E9, 0.0, 2023-09-07 16:53:59.161
199.0, 3960.6397105025903, -33328.48499160826, -4511.230231670169, -10437.415294339096, 1548.9982424972347, 5580.068299778498, 4031.1147607701732, 18512.586475919066, 0.042, 1.01, -0.034, 192.0, 0.0, 0.0, 0.0, 0.0, 0.0, 0.0, 0.0, 0.0, 0.0, 1.69407683916162E9, 0.0, 2023-09-07 16:53:59.161
200.0, 3586.8514879764903, -33759.11370028421, -4811.838842849594, -10500.715434636526, 1197.2488400040675, 5243.138103859199, 3710.702504003347, 18742.965906019916, 0.042, 1.01, -0.034, 192.0, 0.0, 0.0, 0.0, 0.0, 0.0, 0.0, 0.0, 0.0, 0.0, 1.694076839161628E9, 0.0, 2023-09-07 16:53:59.161
201.0, 3607.728017297747, -34010.771991106514, -4810.073055037625, -11323.550203269746, 1267.7685937605613, 5215.421940734618, 3788.5089264522708, 18685.521922769778, 0.042, 1.01, -0.034, 192.0, 0.0, 0.0, 0.0, 0.0, 0.0, 0.0, 0.0, 0.0, 0.0, 1.694076839161635E9, 0.0, 2023-09-07 16:53:59.161
202.0, 3965.4453355604815, -33774.335238258274, -4498.355626863912, -11667.521198692466, 1645.5801302886166, 5553.201502943219, 4157.87150357622, 18549.53390950369, 0.042, 1.01, -0.034, 192.0, 0.0, 0.0, 0.0, 0.0, 0.0, 0.0, 0.0, 0.0, 0.0, 1.694076839161643E9, 0.0, 2023-09-07 16:53:59.161
203.0, 3963.299568092772, -33358.3245704561, -4481.569466777976, -10594.324540415351, 1582.2576382467316, 5602.263582022618, 4084.0883951292512, 18489.206551218816, 0.042, 1.01, -0.034, 192.0, 0.0, 0.0, 0.0, 0.0, 0.0, 0.0, 0.0, 0.0, 0.0, 1.69407683916165E9, 0.0, 2023-09-07 16:53:59.161
204.0, 3612.7795115446465, -33708.71051653749, -4764.296682393156, -10408.402730036109, 1230.0164973755477, 5294.971799251056, 3751.494437634282, 18731.99119949236, 0.042, 1.01, -0.034, 192.0, 0.0, 0.0, 0.0, 0.0, 0.0, 0.0, 0.0, 0.0, 0.0, 1.694076839161657E9, 0.0, 2023-09-07 16:53:59.161
205.0, 3564.119763865443, -34007.59804339386, -4823.774674388727, -11173.994681119286, 1226.7754944295282, 5196.691178881071, 3765.8666093190445, 18722.737577287862, 0.02, 1.006, -0.044, 192.0, 0.0, 160.0, 31.0, 112.0, 254.0, 160.0, 0.0, 0.0, 0.0, 1.694076839161731E9, 0.0, 2023-09-07 16:53:59.161
206.0, 3922.0829513171857, -33875.32041970735, -4523.523691120588, -11704.960370655104, 1612.7454176837705, 5503.267705830062, 4131.541148607868, 18587.509523333254, 0.02, 1.006, -0.044, 192.0, 0.0, 0.0, 0.0, 0.0, 0.0, 0.0, 0.0, 0.0, 0.0, 1.694076839161738E9, 0.0, 2023-09-07 16:53:59.161
207.0, 4043.877606854154, -33382.37504749001, -4425.511291684066, -10748.708039368157, 1661.5839793186165, 5616.63575370738, 4141.085343490284, 18483.976243016274, 0.02, 1.006, -0.044, 192.0, 0.0, 0.0, 0.0, 0.0, 0.0, 0.0, 0.0, 0.0, 0.0, 1.694076839161746E9, 0.0, 2023-09-07 16:53:59.161
208.0, 3648.765820117691, -33664.163489838065, -4726.254013330223, -10328.942278497492, 1271.0543001954914, 5297.609305096782, 3775.522562923737, 18710.488821326355, 0.02, 1.006, -0.044, 192.0, 0.0, 0.0, 0.0, 0.0, 0.0, 0.0, 0.0, 0.0, 0.0, 1.694076839161754E9, 0.0, 2023-09-07 16:53:59.161
209.0, 3502.920687546812, -34056.92834340672, -4888.930009475948, -11061.230130342261, 1172.4831071475874, 5148.701983535527, 3682.2934368006513, 18729.018417479805, 0.02, 1.006, -0.044, 192.0, 0.0, 0.0, 0.0, 0.0, 0.0, 0.0, 0.0, 0.0, 0.0, 1.694076839161761E9, 0.0, 2023-09-07 16:53:59.161
210.0, 3831.04429615072, -34011.464895184625, -4607.745064228185, -11747.339278142366, 1540.5269313486733, 5417.660524566237, 4041.0389353083297, 18596.405517626466, 0.02, 1.006, -0.044, 192.0, 0.0, 0.0, 0.0, 0.0, 0.0, 0.0, 0.0, 0.0, 0.0, 1.694076839161768E9, 0.0, 2023-09-07 16:53:59.161
211.0, 4044.5928626767236, -33448.13387967752, -4431.21098652017, -10981.546161359092, 1691.6023721220938, 5608.030332092087, 4181.318483509837, 18470.56519634309, 0.02, 1.006, -0.044, 192.0, 0.0, 0.0, 0.0, 0.0, 0.0, 0.0, 0.0, 0.0, 0.0, 1.694076839161776E9, 0.0, 2023-09-07 16:53:59.161
212.0, 3678.448936754339, -33596.32594541621, -4693.329893747556, -10317.65464754756, 1333.3709637368875, 5362.474067506083, 3862.4708488548818, 18644.059436805182, 0.02, 1.006, -0.044, 192.0, 0.0, 0.0, 0.0, 0.0, 0.0, 0.0, 0.0, 0.0, 0.0, 1.694076839221995E9, 0.0, 2023-09-07 16:53:59.221
213.0, 3488.615571095416, -34015.21998825312, -4902.229297426856, -10942.162387628841, 1169.711490835129, 5148.165541668599, 3681.734643189269, 18735.85805128313, 0.02, 1.006, -0.044, 192.0, 0.0, 0.0, 0.0, 0.0, 0.0, 0.0, 0.0, 0.0, 0.0, 1.694076839222022E9, 0.0, 2023-09-07 16:53:59.222
214.0, 3771.1863244994074, -34031.91674136123, -4685.752652377207, -11716.180946371669, 1488.9391051458247, 5314.998962283011, 3989.764033527855, 18613.571657368142, 0.02, 1.006, -0.044, 192.0, 0.0, 0.0, 0.0, 0.0, 0.0, 0.0, 0.0, 0.0, 0.0, 1.69407683922203E9, 0.0, 2023-09-07 16:53:59.222
215.0, 4080.601522994223, -33511.32226125267, -4430.5404341865105, -11171.714803184845, 1692.2952762002083, 5618.692114197268, 4219.964649673063, 18494.503914654724, 0.008, 1.004, -0.052000000000000005, 192.0, 0.0, 64.0, 31.0, 96.0, 254.0, 96.0, 0.0, 0.0, 0.0, 1.694076839222037E9, 0.0, 2023-09-07 16:53:59.222
216.0, 3815.889813410022, -33512.84217987564, -4650.034564737626, -10299.929714194503, 1373.0453101450576, 5418.532242599994, 3895.4396719264596, 18615.091575991104, 0.008, 1.004, -0.052000000000000005, 192.0, 0.0, 0.0, 0.0, 0.0, 0.0, 0.0, 0.0, 0.0, 0.0, 1.694076839222045E9, 0.0, 2023-09-07 16:53:59.222
217.0, 3486.939190261268, -33939.760498972, -4896.171974679467, -10811.270572098563, 1169.2868076904783, 5126.797273969326, 3626.704648340303, 18741.445987396954, 0.008, 1.004, -0.052000000000000005, 192.0, 0.0, 0.0, 0.0, 0.0, 0.0, 0.0, 0.0, 0.0, 0.0, 1.694076839222052E9, 0.0, 2023-09-07 16:53:59.222
218.0, 3701.8735649435002, -34039.717500176135, -4724.488225518254, -11616.335703889812, 1439.318232455043, 5257.443220310595, 3893.986808536865, 18648.462730462878, 0.008, 1.004, -0.052000000000000005, 192.0, 0.0, 0.0, 0.0, 0.0, 0.0, 0.0, 0.0, 0.0, 0.0, 1.694076839222059E9, 0.0, 2023-09-07 16:53:59.222
219.0, 4059.6355866951453, -33585.35123888865, -4436.441294722712, -11367.225511935416, 1751.9967856403334, 5671.889266000899, 4139.00663125594, 18477.024850490674, 0.008, 1.004, -0.052000000000000005, 192.0, 0.0, 0.0, 0.0, 0.0, 0.0, 0.0, 0.0, 0.0, 0.0, 1.694076839222065E9, 0.0, 2023-09-07 16:53:59.222
220.0, 3860.3474331316274, -33428.19612362339, -4595.00456988866, -10350.28819445231, 1486.7933376781152, 5524.725380507157, 3900.848794084644, 18523.695292913355, 0.008, 1.004, -0.052000000000000005, 192.0, 0.0, 0.0, 0.0, 0.0, 0.0, 0.0, 0.0, 0.0, 0.0, 1.694076839222072E9, 0.0, 2023-09-07 16:53:59.222
221.0, 3534.548405951072, -33882.54003316641, -4880.637512283029, -10685.027919414988, 1168.9515315236488, 5168.863257034213, 3624.313011683585, 18732.41588263701, 0.008, 1.004, -0.052000000000000005, 192.0, 0.0, 0.0, 0.0, 0.0, 0.0, 0.0, 0.0, 0.0, 0.0, 1.694076839222108E9, 0.0, 2023-09-07 16:53:59.222
222.0, 3640.71919211378, -34053.30736080496, -4788.2801041937, -11532.784883115875, 1355.968577381203, 5266.51802855945, 3792.2640195207623, 18622.19943072789, 0.008, 1.004, -0.052000000000000005, 192.0, 0.0, 0.0, 0.0, 0.0, 0.0, 0.0, 0.0, 0.0, 0.0, 1.694076839222115E9, 0.0, 2023-09-07 16:53:59.222
223.0, 3990.2110684169616, -33676.412245799576, -4485.704539502209, -11569.173523089114, 1694.9998372793004, 5617.060436852031, 4109.457625086025, 18496.493219911245, 0.008, 1.004, -0.052000000000000005, 192.0, 0.0, 0.0, 0.0, 0.0, 0.0, 0.0, 0.0, 0.0, 0.0, 1.694076839222122E9, 0.0, 2023-09-07 16:53:59.222
224.0, 3882.2521426978283, -33373.09907354106, -4556.760735125629, -10471.389945911164, 1520.566823550084, 5562.499828636626, 3942.0654108602303, 18532.61363895102, 0.008, 1.004, -0.052000000000000005, 192.0, 0.0, 0.0, 0.0, 0.0, 0.0, 0.0, 0.0, 0.0, 0.0, 1.694076839222129E9, 0.0, 2023-09-07 16:53:59.222
225.0, 3500.5961061234602, -33814.16604687763, -4861.839695196116, -10596.604418349794, 1177.5122496500314, 5210.817481376825, 3624.961212272789, 18752.28658345778, 0.012, 1.016, -0.062, 192.0, 0.0, 96.0, 31.0, 192.0, 254.0, 16.0, 0.0, 0.0, 0.0, 1.694076839222136E9, 0.0, 2023-09-07 16:53:59.222
226.0, 3561.571664997538, -34037.16940130823, -4835.285822783211, -11432.425550511545, 1266.1592681597792, 5234.599737477271, 3737.2340246717963, 18672.066172607683, 0.012, 1.016, -0.062, 192.0, 0.0, 0.0, 0.0, 0.0, 0.0, 0.0, 0.0, 0.0, 0.0, 1.694076839222143E9, 0.0, 2023-09-07 16:53:59.222
227.0, 3968.999262928875, -33728.87179003618, -4486.777423236063, -11701.585257242354, 1679.3536161605855, 5587.064395793009, 4137.956099266541, 18542.582516978087, 0.012, 1.016, -0.062, 192.0, 0.0, 0.0, 0.0, 0.0, 0.0, 0.0, 0.0, 0.0, 0.0, 1.69407683928219E9, 0.0, 2023-09-07 16:53:59.282
228.0, 3963.0536989037632, -33313.03993618965, -4486.956237191705, -10604.136956231232, 1614.4888537512845, 5652.711469258245, 4029.818359591766, 18496.627330377978, 0.012, 1.016, -0.062, 192.0, 0.0, 0.0, 0.0, 0.0, 0.0, 0.0, 0.0, 0.0, 0.0, 1.694076839282212E9, 0.0, 2023-09-07 16:53:59.282
229.0, 3591.2324298897306, -33686.80580697129, -4789.37533967201, -10477.894303547657, 1251.429468563732, 5333.81913111438, 3680.39353852195, 18753.448874169455, 0.012, 1.016, -0.062, 192.0, 0.0, 0.0, 0.0, 0.0, 0.0, 0.0, 0.0, 0.0, 0.0, 1.694076839282222E9, 0.0, 2023-09-07 16:53:59.282
230.0, 3534.9060338623567, -33993.80701706493, -4860.409183550976, -11288.99440634184, 1246.422677805743, 5221.434559993096, 3664.143820302942, 18708.164239903002, 0.012, 1.016, -0.062, 192.0, 0.0, 0.0, 0.0, 0.0, 0.0, 0.0, 0.0, 0.0, 0.0, 1.69407683928223E9, 0.0, 2023-09-07 16:53:59.282
231.0, 3900.513517917814, -33810.8803404427, -4549.80934260003, -11789.785240862995, 1621.8649294215359, 5553.492075621138, 4042.3576882311927, 18582.90506397546, 0.012, 1.016, -0.062, 192.0, 0.0, 0.0, 0.0, 0.0, 0.0, 0.0, 0.0, 0.0, 0.0, 1.694076839282239E9, 0.0, 2023-09-07 16:53:59.282
232.0, 4007.265449436361, -33326.65214856293, -4478.015539409583, -10804.877973184344, 1616.2099380743432, 5670.034071211108, 4041.284804497338, 18467.03362071915, 0.012, 1.016, -0.062, 192.0, 0.0, 0.0, 0.0, 0.0, 0.0, 0.0, 0.0, 0.0, 0.0, 1.694076839282247E9, 0.0, 2023-09-07 16:53:59.282
233.0, 3648.207026506308, -33609.69228860048, -4754.819542744105, -10415.19766035052, 1265.48871582612, 5395.129966155287, 3697.0679398856096, 18694.686137996454, 0.012, 1.016, -0.062, 192.0, 0.0, 0.0, 0.0, 0.0, 0.0, 0.0, 0.0, 0.0, 0.0, 1.694076839282256E9, 0.0, 2023-09-07 16:53:59.282
234.0, 3526.9488128362673, -33950.55639154391, -4880.793974494216, -11144.557433671645, 1202.456796462154, 5224.787321661392, 3627.4869593962385, 18731.3206471587, 0.012, 1.016, -0.062, 192.0, 0.0, 0.0, 0.0, 0.0, 0.0, 0.0, 0.0, 0.0, 0.0, 1.694076839282265E9, 0.0, 2023-09-07 16:53:59.282
235.0, 3834.017078163276, -33879.053161031385, -4614.718808498241, -11813.791014407994, 1541.7562772937154, 5485.252199799085, 3975.5259723098247, 18597.612511827054, 0.012, 1.016, -0.062, 192.0, 0.0, 0.0, 31.0, 160.0, 253.0, 224.0, 0.0, 0.0, 0.0, 1.694076839282273E9, 0.0, 2023-09-07 16:53:59.282
236.0, 4031.6512026371006, -33352.93780004237, -4449.181789062237, -11003.137946502919, 1678.5713051046498, 5692.788147066611, 4083.417842795592, 18464.55257708461, 0.012, 1.016, -0.062, 192.0, 0.0, 0.0, 0.0, 0.0, 0.0, 0.0, 0.0, 0.0, 0.0, 1.694076839282283E9, 0.0, 2023-09-07 16:53:59.282
237.0, 3700.1301288759864, -33520.218255545886, -4704.639876441941, -10367.186113260523, 1329.615870668396, 5441.174559733219, 3755.048365002676, 18651.681381664443, 0.012, 1.016, -0.062, 192.0, 0.0, 0.0, 0.0, 0.0, 0.0, 0.0, 0.0, 0.0, 0.0, 1.694076839282319E9, 0.0, 2023-09-07 16:53:59.282
238.0, 3505.960524792734, -33921.90145515221, -4894.517945589775, -11005.306065715084, 1169.5773803683974, 5206.078911552299, 3601.916563739367, 18731.81238553672, 0.012, 1.016, -0.062, 192.0, 0.0, 0.0, 0.0, 0.0, 0.0, 0.0, 0.0, 0.0, 0.0, 1.694076839282327E9, 0.0, 2023-09-07 16:53:59.282
239.0, 3788.0842433076195, -33927.60114998832, -4661.992748021215, -11768.841656308372, 1493.6553232258946, 5435.139588730287, 3908.4930906883587, 18605.905009019974, 0.012, 1.016, -0.062, 192.0, 0.0, 0.0, 0.0, 0.0, 0.0, 0.0, 0.0, 0.0, 0.0, 1.694076839282336E9, 0.0, 2023-09-07 16:53:59.282
240.0, 4056.3722320046704, -33401.06110585464, -4434.831969121929, -11188.97034990434, 1716.8821951010461, 5716.860975844977, 4107.9377064630635, 18477.09190572404, 0.012, 1.016, -0.062, 192.0, 0.0, 0.0, 0.0, 0.0, 0.0, 0.0, 0.0, 0.0, 0.0, 1.694076839282348E9, 0.0, 2023-09-07 16:53:59.282
241.0, 3781.3787199710277, -33428.17377187893, -4650.839227538017, -10343.090932737701, 1400.1132726804344, 5507.335723320928, 3781.110499037564, 18615.091575991104, 0.012, 1.016, -0.062, 192.0, 0.0, 0.0, 0.0, 0.0, 0.0, 0.0, 0.0, 0.0, 0.0, 1.694076839282359E9, 0.0, 2023-09-07 16:53:59.282
242.0, 3526.4570744582506, -33859.51773637745, -4880.838677983127, -10851.682526073757, 1177.2216769721124, 5229.436484508095, 3576.9943686716997, 18746.966868277417, 0.012, 1.016, -0.062, 192.0, 0.0, 0.0, 0.0, 0.0, 0.0, 0.0, 0.0, 0.0, 0.0, 1.69407683934253E9, 0.0, 2023-09-07 16:53:59.342
243.0, 3736.5634723381368, -33941.57099027288, -4708.059693343603, -11667.78941962593, 1440.0558400220682, 5398.236858634575, 3877.334758917661, 18643.36653272707, 0.012, 1.016, -0.062, 192.0, 0.0, 0.0, 0.0, 0.0, 0.0, 0.0, 0.0, 0.0, 0.0, 1.694076839342573E9, 0.0, 2023-09-07 16:53:59.342
244.0, 4054.3382232592376, -33481.840310316125, -4450.142914073815, -11375.495657383879, 1715.7422561338255, 5692.7434435777, 4144.661622603134, 18503.981054303775, 0.012, 1.016, -0.062, 192.0, 0.0, 0.0, 0.0, 0.0, 0.0, 0.0, 0.0, 0.0, 0.0, 1.694076839342582E9, 0.0, 2023-09-07 16:53:59.342
245.0, 3857.6428720525355, -33367.15350951594, -4613.53416604211, -10376.283273253832, 1457.8031251195819, 5563.170380970286, 3886.7224915888896, 18580.91575871894, 0.01, 1.008, -0.062, 192.0, 0.0, 80.0, 31.0, 128.0, 254.0, 16.0, 0.0, 0.0, 0.0, 1.694076839342591E9, 0.0, 2023-09-07 16:53:59.342
246.0, 3542.282109532608, -33814.92600618911, -4878.022358181758, -10721.953001255155, 1189.4480811891654, 5257.152647632676, 3612.9359737558334, 18768.80452261025, 0.01, 1.008, -0.062, 192.0, 0.0, 0.0, 0.0, 0.0, 0.0, 0.0, 0.0, 0.0, 0.0, 1.6940768393426E9, 0.0, 2023-09-07 16:53:59.342
247.0, 3641.9038345699114, -34000.78076133499, -4805.580354402108, -11596.353244346768, 1365.7586414526274, 5320.877471074757, 3749.9298155224105, 18644.484119949833, 0.01, 1.008, -0.062, 192.0, 0.0, 0.0, 0.0, 0.0, 0.0, 0.0, 0.0, 0.0, 0.0, 1.694076839342608E9, 0.0, 2023-09-07 16:53:59.342
248.0, 4023.068132766263, -33575.27060213931, -4483.402309823312, -11561.640985207676, 1706.24276474032, 5688.250742942184, 4094.1466801341394, 18514.91105734242, 0.01, 1.008, -0.062, 192.0, 0.0, 0.0, 0.0, 0.0, 0.0, 0.0, 0.0, 0.0, 0.0, 1.694076839342616E9, 0.0, 2023-09-07 16:53:59.342
249.0, 3897.071349271697, -33306.89320646444, -4576.47497373521, -10459.632928327672, 1519.2257188827657, 5606.622172191403, 3886.9907125223535, 18516.3192172431, 0.01, 1.008, -0.062, 192.0, 0.0, 0.0, 0.0, 0.0, 0.0, 0.0, 0.0, 0.0, 0.0, 1.694076839342625E9, 0.0, 2023-09-07 16:53:59.342
250.0, 3538.4599612307507, -33746.14968850013, -4870.690986000417, -10610.060168511889, 1188.7328253665955, 5271.61422629526, 3576.413223315862, 18735.120443716103, 0.01, 1.008, -0.062, 192.0, 0.0, 0.0, 0.0, 0.0, 0.0, 0.0, 0.0, 0.0, 0.0, 1.694076839342633E9, 0.0, 2023-09-07 16:53:59.342
251.0, 3601.0895491945207, -33978.36196164632, -4847.802799678183, -11461.21459736998, 1291.5732016054633, 5264.148743647188, 3697.403216052439, 18657.73870441183, 0.01, 1.008, -0.062, 192.0, 0.0, 0.0, 0.0, 0.0, 0.0, 0.0, 0.0, 0.0, 0.0, 1.694076839342641E9, 0.0, 2023-09-07 16:53:59.342
252.0, 4003.5327081123246, -33658.910829891065, -4509.173871180281, -11674.763163895985, 1677.5207731152504, 5635.500626027659, 4086.9270666750754, 18535.944048874862, 0.01, 1.008, -0.062, 192.0, 0.0, 0.0, 0.0, 0.0, 0.0, 0.0, 0.0, 0.0, 0.0, 1.694076839342706E9, 0.0, 2023-09-07 16:53:59.342
253.0, 3958.0022046568643, -33291.358744068, -4533.291403447557, -10577.828953007336, 1569.5171439072067, 5637.02054465062, 3957.0634313897413, 18497.700214111832, 0.01, 1.008, -0.062, 192.0, 0.0, 0.0, 0.0, 0.0, 0.0, 0.0, 0.0, 0.0, 0.0, 1.694076839342715E9, 0.0, 2023-09-07 16:53:59.342
254.0, 3596.149813669898, -33686.55993778228, -4828.110912813057, -10505.386949227686, 1225.1214653398354, 5306.594706367816, 3616.1322732129424, 18729.04076922426, 0.01, 1.008, -0.062, 192.0, 0.0, 0.0, 0.0, 0.0, 0.0, 0.0, 0.0, 0.0, 0.0, 1.694076839342724E9, 0.0, 2023-09-07 16:53:59.342
255.0, 3563.9185981653454, -33969.08598769736, -4873.082622657135, -11320.756235212832, 1249.037831907014, 5201.7873766168805, 3637.2323199787525, 18673.16140808599, 0.02, 1.018, -0.058, 192.0, 0.0, 160.0, 31.0, 208.0, 254.0, 48.0, 0.0, 0.0, 0.0, 1.694076839342732E9, 0.0, 2023-09-07 16:53:59.342
0.0, 3909.0965877886524, -33767.18268003257, -4566.729613152696, -11771.210941220636, 1623.5189585112284, 5530.626241043358, 4032.5676241597685, 18555.501825273255, 0.02, 1.018, -0.058, 192.0, 0.0, 0.0, 0.0, 0.0, 0.0, 0.0, 0.0, 0.0, 0.0, 1.694076839342741E9, 0.0, 2023-09-07 16:53:59.342
1.0, 3971.860286219154, -33304.859197719, -4499.495565831133, -10752.239614992097, 1631.3197173261306, 5657.807666994056, 4037.5297114288464, 18475.08024872306, 0.02, 1.018, -0.058, 192.0, 0.0, 0.0, 0.0, 0.0, 0.0, 0.0, 0.0, 0.0, 0.0, 1.694076839402749E9, 0.0, 2023-09-07 16:53:59.402
2.0, 3625.721171584269, -33607.83709381069, -4778.400633144454, -10421.34439007573, 1294.5683353624745, 5359.143657582243, 3700.621867254003, 18701.458716566412, 0.02, 1.018, -0.058, 192.0, 0.0, 0.0, 0.0, 0.0, 0.0, 0.0, 0.0, 0.0, 0.0, 1.694076839402775E9, 0.0, 2023-09-07 16:53:59.402
3.0, 3545.992499112189, -33937.68178673766, -4886.605428052596, -11165.813942648643, 1220.5393577264974, 5199.418091704619, 3639.8474740800234, 18697.971844431384, 0.02, 1.018, -0.058, 192.0, 0.0, 0.0, 0.0, 0.0, 0.0, 0.0, 0.0, 0.0, 0.0, 1.694076839402785E9, 0.0, 2023-09-07 16:53:59.402
4.0, 3898.01012253882, -33826.92889296161, -4604.146433370881, -11776.485952912088, 1568.600722384539, 5518.198671126208, 3980.5327630678134, 18592.87394200253, 0.02, 1.018, -0.058, 192.0, 0.0, 0.0, 0.0, 0.0, 0.0, 0.0, 0.0, 0.0, 0.0, 1.694076839402794E9, 0.0, 2023-09-07 16:53:59.402
5.0, 4056.5286942158577, -33292.58809001304, -4456.02142286556, -10901.437509231271, 1684.2262964518425, 5691.201173210285, 4072.0408048678405, 18486.926673284375, 0.02, 1.018, -0.058, 192.0, 0.0, 0.0, 0.0, 0.0, 0.0, 0.0, 0.0, 0.0, 0.0, 1.694076839402803E9, 0.0, 2023-09-07 16:53:59.402
6.0, 3683.1428030899533, -33515.97142409938, -4736.021725657192, -10349.639993863106, 1317.9482600627257, 5386.792765473458, 3722.437169842383, 18667.01467836078, 0.02, 1.018, -0.058, 192.0, 0.0, 0.0, 0.0, 0.0, 0.0, 0.0, 0.0, 0.0, 0.0, 1.694076839402812E9, 0.0, 2023-09-07 16:53:59.402
7.0, 3509.2909347165746, -33904.42239098816, -4903.615105583084, -11019.61118216648, 1196.5112324370423, 5168.6173878452055, 3573.440441303306, 18732.885269270573, 0.02, 1.018, -0.058, 192.0, 0.0, 0.0, 0.0, 0.0, 0.0, 0.0, 0.0, 0.0, 0.0, 1.694076839402821E9, 0.0, 2023-09-07 16:53:59.402
8.0, 3788.3524642410835, -33907.171655556165, -4676.029643539148, -11775.010737778037, 1507.669866999372, 5422.60026009086, 3899.9547243064317, 18605.54738110869, 0.02, 1.018, -0.058, 192.0, 0.0, 0.0, 0.0, 0.0, 0.0, 0.0, 0.0, 0.0, 0.0, 1.69407683940283E9, 0.0, 2023-09-07 16:53:59.402
9.0, 4045.3081184992934, -33361.05148327965, -4446.812504149974, -11124.709084595333, 1722.492482959328, 5695.515059890158, 4111.402226853636, 18480.288205181147, 0.018000000000000002, 1.014, -0.06, 192.0, 0.0, 144.0, 31.0, 176.0, 254.0, 32.0, 0.0, 0.0, 0.0, 1.694076839402839E9, 0.0, 2023-09-07 16:53:59.402
10.0, 3744.878321275511, -33426.38563232251, -4676.11905051697, -10323.309638894754, 1382.3659875829205, 5451.322251715929, 3803.3281330261393, 18637.286858235224, 0.018000000000000002, 1.014, -0.06, 192.0, 0.0, 0.0, 0.0, 0.0, 0.0, 0.0, 0.0, 0.0, 0.0, 1.694076839402849E9, 0.0, 2023-09-07 16:53:59.402
11.0, 3491.7224635747034, -33871.721788850045, -4911.594678353629, -10889.278160247584, 1173.0419007589699, 5181.559047884828, 3601.313066639074, 18740.507214129833, 0.018000000000000002, 1.014, -0.06, 192.0, 0.0, 0.0, 0.0, 0.0, 0.0, 0.0, 0.0, 0.0, 0.0, 1.694076839402858E9, 0.0, 2023-09-07 16:53:59.402
12.0, 3722.727742520302, -33947.04716766443, -4724.778798196173, -11706.480289278066, 1452.9527965727802, 5370.8336199323685, 3870.852753025622, 18622.57941038363, 0.018000000000000002, 1.014, -0.06, 192.0, 0.0, 0.0, 0.0, 0.0, 0.0, 0.0, 0.0, 0.0, 0.0, 1.694076839402891E9, 0.0, 2023-09-07 16:53:59.402
13.0, 4039.027278307352, -33441.0930801741, -4447.237187294625, -11317.895211922552, 1727.9910120953336, 5686.127327218929, 4120.05235195784, 18500.985920546762, 0.018000000000000002, 1.014, -0.06, 192.0, 0.0, 0.0, 0.0, 0.0, 0.0, 0.0, 0.0, 0.0, 0.0, 1.6940768394029E9, 0.0, 2023-09-07 16:53:59.402
14.0, 3799.7742056577454, -33361.36440770202, -4622.765436502152, -10350.914043297058, 1452.0810785390233, 5518.131615892842, 3841.3931538335273, 18591.488133846302, 0.018000000000000002, 1.014, -0.06, 192.0, 0.0, 0.0, 0.0, 0.0, 0.0, 0.0, 0.0, 0.0, 0.0, 1.694076839402909E9, 0.0, 2023-09-07 16:53:59.402
15.0, 3519.3492197214628, -33808.06402064133, -4881.084547172135, -10746.294050966984, 1178.5180781505203, 5219.288792525386, 3584.8398309755125, 18757.829816082696, 0.018000000000000002, 1.014, -0.06, 192.0, 0.0, 0.0, 0.0, 0.0, 0.0, 0.0, 0.0, 0.0, 0.0, 1.694076839402918E9, 0.0, 2023-09-07 16:53:59.402
16.0, 3687.4119862809166, -33947.13657464225, -4756.652385789441, -11590.273569854924, 1388.0209789301132, 5336.05430555991, 3799.684798679924, 18658.36455325658, 0.018000000000000002, 1.014, -0.06, 192.0, 0.0, 0.0, 0.0, 0.0, 0.0, 0.0, 0.0, 0.0, 0.0, 1.694076839463105E9, 0.0, 2023-09-07 16:53:59.463
17.0, 4037.5297114288464, -33521.06762183519, -4444.867902382362, -11480.615911557188, 1728.8403783846354, 5674.794992780089, 4132.524625363902, 18537.933354131386, 0.018000000000000002, 1.014, -0.06, 192.0, 0.0, 0.0, 0.0, 0.0, 0.0, 0.0, 0.0, 0.0, 0.0, 1.694076839463135E9, 0.0, 2023-09-07 16:53:59.463
18.0, 3887.9518375339317, -33300.008869172205, -4554.346746724456, -10395.997511863412, 1518.8904427159362, 5589.29957023854, 3914.483358202381, 18569.046982413172, 0.018000000000000002, 1.014, -0.06, 192.0, 0.0, 0.0, 0.0, 0.0, 0.0, 0.0, 0.0, 0.0, 0.0, 1.694076839463144E9, 0.0, 2023-09-07 16:53:59.463
19.0, 3540.382211253907, -33741.567580886796, -4846.685212455418, -10609.009636522489, 1193.292581235478, 5259.164304633654, 3621.04965699311, 18782.39438323908, 0.028, 1.018, -0.06, 192.0, 0.0, 224.0, 31.0, 208.0, 254.0, 32.0, 0.0, 0.0, 0.0, 1.694076839463151E9, 0.0, 2023-09-07 16:53:59.463
20.0, 3613.04773247811, -33956.524307313484, -4798.606610132052, -11465.975518938962, 1321.770408364583, 5281.896028744702, 3773.55560941167, 18694.84260020764, 0.028, 1.018, -0.06, 192.0, 0.0, 0.0, 0.0, 0.0, 0.0, 0.0, 0.0, 0.0, 0.0, 1.694076839463159E9, 0.0, 2023-09-07 16:53:59.463
21.0, 3973.2684461198387, -33634.659187157056, -4486.218629624681, -11638.151006478192, 1684.0698342406554, 5617.686285696779, 4114.777340266388, 18553.95955490584, 0.028, 1.018, -0.06, 192.0, 0.0, 0.0, 0.0, 0.0, 0.0, 0.0, 0.0, 0.0, 0.0, 1.694076839463167E9, 0.0, 2023-09-07 16:53:59.463
22.0, 3905.4756051868926, -33293.705677235805, -4530.676249346287, -10536.70174320957, 1564.890332804958, 5603.0458930785535, 3958.2480738458726, 18517.056824810126, 0.028, 1.018, -0.06, 192.0, 0.0, 0.0, 0.0, 0.0, 0.0, 0.0, 0.0, 0.0, 0.0, 1.694076839463175E9, 0.0, 2023-09-07 16:53:59.463
23.0, 3556.2966533060853, -33693.734847752436, -4824.199357533379, -10517.255725533454, 1216.2478227910785, 5277.224514153542, 3627.0399245071326, 18751.347810190655, 0.028, 1.018, -0.06, 192.0, 0.0, 0.0, 0.0, 0.0, 0.0, 0.0, 0.0, 0.0, 0.0, 1.694076839463183E9, 0.0, 2023-09-07 16:53:59.463
24.0, 3584.303389108585, -33946.734243242056, -4828.110912813057, -11328.691104494466, 1279.972646233159, 5234.0632956103445, 3697.671436985903, 18704.45385032342, 0.028, 1.018, -0.06, 192.0, 0.0, 0.0, 0.0, 0.0, 0.0, 0.0, 0.0, 0.0, 0.0, 1.69407683946319E9, 0.0, 2023-09-07 16:53:59.463
25.0, 3945.3511172951603, -33707.74939152591, -4508.391560124345, -11721.32184759639, 1671.2846364122197, 5565.852590304922, 4077.069947370285, 18576.177188894413, 0.028, 1.018, -0.06, 192.0, 0.0, 0.0, 0.0, 0.0, 0.0, 0.0, 0.0, 0.0, 0.0, 1.694076839463198E9, 0.0, 2023-09-07 16:53:59.463
26.0, 3985.0478154477855, -33259.5522117081, -4475.132164374848, -10667.191227339654, 1633.9572231718569, 5645.35774533245, 4020.31886819826, 18498.862504823508, 0.028, 1.018, -0.06, 192.0, 0.0, 0.0, 0.0, 0.0, 0.0, 0.0, 0.0, 0.0, 0.0, 1.694076839463205E9, 0.0, 2023-09-07 16:53:59.463
27.0, 3610.3208196545625, -33595.8789105271, -4765.548380082653, -10408.246267824921, 1263.7899832475166, 5340.122323050777, 3660.791058634646, 18736.774472805795, 0.028, 1.018, -0.06, 192.0, 0.0, 0.0, 0.0, 0.0, 0.0, 0.0, 0.0, 0.0, 0.0, 1.694076839463213E9, 0.0, 2023-09-07 16:53:59.463
28.0, 3530.7709611381247, -33924.56131274239, -4858.53163701673, -11185.841105680598, 1234.7327154556174, 5208.98463833149, 3618.9485930143114, 18726.246801167348, 0.024, 1.02, -0.056, 192.0, 0.0, 192.0, 31.0, 224.0, 254.0, 64.0, 0.0, 0.0, 0.0, 1.694076839463257E9, 0.0, 2023-09-07 16:53:59.463
29.0, 3855.139476673541, -33807.2817095854, -4576.676139435308, -11779.503438413554, 1596.2721820202091, 5513.147176879308, 4009.7911965598105, 18593.320976891635, 0.024, 1.02, -0.056, 192.0, 0.0, 0.0, 0.0, 0.0, 0.0, 0.0, 0.0, 0.0, 0.0, 1.694076839463266E9, 0.0, 2023-09-07 16:53:59.463
30.0, 3996.0895772087074, -33305.21682563029, -4464.738603203131, -10868.468686159693, 1668.9600549888678, 5661.7862775071, 4040.770714374866, 18476.600167346023, 0.024, 1.02, -0.056, 192.0, 0.0, 0.0, 0.0, 0.0, 0.0, 0.0, 0.0, 0.0, 0.0, 1.694076839463273E9, 0.0, 2023-09-07 16:53:59.463
31.0, 3646.4188869498835, -33537.74202319885, -4736.759333224218, -10358.826560834237, 1316.6518588843178, 5380.087242136865, 3696.39738755195, 18695.89313219704, 0.024, 1.02, -0.056, 192.0, 0.0, 0.0, 0.0, 0.0, 0.0, 0.0, 0.0, 0.0, 0.0, 1.694076839522432E9, 0.0, 2023-09-07 16:53:59.522
32.0, 3510.40852193934, -33914.771248670964, -4894.54029733423, -11058.749086707723, 1179.8591828178387, 5164.370556398697, 3608.8679562649677, 18727.766719790307, 0.024, 1.02, -0.056, 192.0, 0.0, 0.0, 0.0, 0.0, 0.0, 0.0, 0.0, 0.0, 0.0, 1.694076839522483E9, 0.0, 2023-09-07 16:53:59.522
33.0, 3814.883984909533, -33876.32624820784, -4634.902433741383, -11773.535522643986, 1522.019686939679, 5436.234824208596, 3963.4783820484145, 18607.693148576396, 0.024, 1.02, -0.056, 192.0, 0.0, 0.0, 0.0, 0.0, 0.0, 0.0, 0.0, 0.0, 0.0, 1.694076839522492E9, 0.0, 2023-09-07 16:53:59.522
34.0, 4028.812531091277, -33355.19532623236, -4453.294510042013, -11066.795714711632, 1701.593601893616, 5663.306196130061, 4082.032034639363, 18482.635138348956, 0.024, 1.02, -0.056, 192.0, 0.0, 0.0, 0.0, 0.0, 0.0, 0.0, 0.0, 0.0, 0.0, 1.6940768395225E9, 0.0, 2023-09-07 16:53:59.522
35.0, 3692.374073549995, -33475.15713872399, -4708.104396832514, -10341.459255392463, 1358.516676249108, 5405.523527327005, 3741.4138008849386, 18636.16927101246, 0.024, 1.02, -0.056, 192.0, 0.0, 0.0, 0.0, 0.0, 0.0, 0.0, 0.0, 0.0, 0.0, 1.694076839522507E9, 0.0, 2023-09-07 16:53:59.522
36.0, 3467.761393518614, -33883.747027367004, -4915.439178399942, -10930.49477702317, 1162.067194231414, 5145.237463144954, 3565.1702958548426, 18738.830833295684, 0.024, 1.02, -0.056, 192.0, 0.0, 0.0, 0.0, 0.0, 0.0, 0.0, 0.0, 0.0, 0.0, 1.694076839522515E9, 0.0, 2023-09-07 16:53:59.522
37.0, 3729.209748412341, -33913.96658587058, -4696.570896693575, -11726.149824398735, 1461.5582181880736, 5360.417707016195, 3895.8867068155655, 18630.916611065462, 0.024, 1.02, -0.056, 192.0, 0.0, 0.0, 0.0, 0.0, 0.0, 0.0, 0.0, 0.0, 0.0, 1.694076839522523E9, 0.0, 2023-09-07 16:53:59.522
38.0, 4040.5919004192237, -33398.96004187585, -4438.028268579039, -11257.41139142649, 1715.2952212447192, 5684.294484173594, 4141.957061524041, 18513.346435230545, 0.016, 1.012, -0.058, 192.0, 0.0, 128.0, 31.0, 160.0, 254.0, 48.0, 0.0, 0.0, 0.0, 1.69407683952253E9, 0.0, 2023-09-07 16:53:59.522
39.0, 3766.626568630525, -33383.64909692396, -4641.764419289162, -10339.84992979168, 1429.1034852389678, 5498.3279703054395, 3807.709074939379, 18613.750471323787, 0.016, 1.012, -0.058, 192.0, 0.0, 0.0, 0.0, 0.0, 0.0, 0.0, 0.0, 0.0, 0.0, 1.694076839522538E9, 0.0, 2023-09-07 16:53:59.522
40.0, 3463.2016376497318, -33846.754890293465, -4910.946477764425, -10799.670016726259, 1153.9982144830483, 5195.7971091028585, 3555.5813974835155, 18762.36722020712, 0.016, 1.012, -0.058, 192.0, 0.0, 0.0, 0.0, 0.0, 0.0, 0.0, 0.0, 0.0, 0.0, 1.694076839522546E9, 0.0, 2023-09-07 16:53:59.522
41.0, 3661.863942368501, -33955.31731311289, -4754.1489904104465, -11644.431846670133, 1399.867403491426, 5326.554814166405, 3807.306743539184, 18641.466634448367, 0.016, 1.012, -0.058, 192.0, 0.0, 0.0, 0.0, 0.0, 0.0, 0.0, 0.0, 0.0, 0.0, 1.694076839522553E9, 0.0, 2023-09-07 16:53:59.522
42.0, 4027.6949438685115, -33493.86554883308, -4441.358678502879, -11449.345821064213, 1728.147474306521, 5677.141925947896, 4121.192290925061, 18520.029606822685, 0.016, 1.012, -0.058, 192.0, 0.0, 0.0, 0.0, 0.0, 0.0, 0.0, 0.0, 0.0, 0.0, 1.694076839522561E9, 0.0, 2023-09-07 16:53:59.522
43.0, 3844.947081201921, -33309.933043710356, -4579.33599702549, -10379.479572710941, 1488.2462010677102, 5566.701956594224, 3889.047073012242, 18592.315148391146, 0.016, 1.012, -0.058, 192.0, 0.0, 0.0, 0.0, 0.0, 0.0, 0.0, 0.0, 0.0, 0.0, 1.694076839522568E9, 0.0, 2023-09-07 16:53:59.522
44.0, 3490.671931585304, -33767.696770155046, -4872.8367534681265, -10661.87151215929, 1178.2275054726013, 5231.6046037202605, 3599.256706149186, 18782.841418128184, 0.016, 1.012, -0.058, 192.0, 0.0, 0.0, 0.0, 0.0, 0.0, 0.0, 0.0, 0.0, 0.0, 1.694076839522619E9, 0.0, 2023-09-07 16:53:59.522
45.0, 3601.246011405708, -33957.776005002976, -4795.879697308505, -11522.078397521782, 1344.9268156202813, 5275.2128571525645, 3740.2515101732624, 18674.994251131327, 0.016, 1.012, -0.058, 192.0, 0.0, 0.0, 0.0, 0.0, 0.0, 0.0, 0.0, 0.0, 0.0, 1.694076839522627E9, 0.0, 2023-09-07 16:53:59.522
46.0, 3975.414213587548, -33593.487273870385, -4472.740527718131, -11612.714721288052, 1708.9249740749567, 5623.698904955257, 4086.8823631861646, 18536.34638027506, 0.016, 1.012, -0.058, 192.0, 0.0, 0.0, 0.0, 0.0, 0.0, 0.0, 0.0, 0.0, 0.0, 1.694076839582719E9, 0.0, 2023-09-07 16:53:59.582
47.0, 3918.5960791821576, -33260.49098497522, -4517.041685228549, -10472.26166394492, 1561.314053692109, 5604.498756468148, 3977.1129461661517, 18550.942069404373, 0.016, 1.012, -0.058, 192.0, 0.0, 0.0, 0.0, 0.0, 0.0, 0.0, 0.0, 0.0, 0.0, 1.694076839582764E9, 0.0, 2023-09-07 16:53:59.582
48.0, 3567.8972086783897, -33669.08087361823, -4799.8136043326385, -10513.36652199823, 1226.7754944295282, 5287.863944514268, 3678.53834373216, 18811.630464986618, 0.018000000000000002, 1.01, -0.05, 192.0, 0.0, 144.0, 31.0, 144.0, 254.0, 112.0, 0.0, 0.0, 0.0, 1.694076839582772E9, 0.0, 2023-09-07 16:53:59.582
49.0, 3557.347185295485, -33950.42228107718, -4832.044819837191, -11376.72500332892, 1283.8618497683824, 5203.240240006476, 3736.1834926823967, 18725.196269177948, 0.018000000000000002, 1.01, -0.05, 192.0, 0.0, 0.0, 0.0, 0.0, 0.0, 0.0, 0.0, 0.0, 0.0, 1.69407683958278E9, 0.0, 2023-09-07 16:53:59.582
50.0, 3931.135407821585, -33701.1556269116, -4511.856080514918, -11731.760112257018, 1669.4964968557952, 5582.9740265576875, 4101.500404059935, 18575.77485749422, 0.018000000000000002, 1.01, -0.05, 192.0, 0.0, 0.0, 0.0, 0.0, 0.0, 0.0, 0.0, 0.0, 0.0, 1.694076839582787E9, 0.0, 2023-09-07 16:53:59.582
51.0, 3944.4123440280373, -33272.29270604762, -4491.895972716328, -10630.646125155226, 1616.5228624967174, 5650.722164001723, 4008.1818709590284, 18537.732188431288, 0.018000000000000002, 1.01, -0.05, 192.0, 0.0, 0.0, 0.0, 0.0, 0.0, 0.0, 0.0, 0.0, 0.0, 1.694076839582794E9, 0.0, 2023-09-07 16:53:59.582
52.0, 3554.2402928161973, -33650.12659432013, -4806.385017202499, -10458.627099827183, 1241.9299771702263, 5307.756997079492, 3658.9135121004, 18771.531435433797, 0.018000000000000002, 1.01, -0.05, 192.0, 0.0, 0.0, 0.0, 0.0, 0.0, 0.0, 0.0, 0.0, 0.0, 1.694076839582801E9, 0.0, 2023-09-07 16:53:59.582
53.0, 3494.9411147762676, -33969.37656037528, -4888.974712964859, -11267.08969677564, 1210.3022587659668, 5179.592094372761, 3651.537436430149, 18721.016492964805, 0.018000000000000002, 1.01, -0.05, 192.0, 0.0, 0.0, 0.0, 0.0, 0.0, 0.0, 0.0, 0.0, 0.0, 1.694076839582808E9, 0.0, 2023-09-07 16:53:59.582
54.0, 3872.1491542040294, -33789.31090704333, -4565.097935807459, -11794.367348476333, 1602.5753739566057, 5521.864357216878, 4045.732801643944, 18587.621282055534, 0.018000000000000002, 1.01, -0.05, 192.0, 0.0, 0.0, 0.0, 0.0, 0.0, 0.0, 0.0, 0.0, 0.0, 1.694076839582814E9, 0.0, 2023-09-07 16:53:59.582
55.0, 4010.4393971490144, -33263.77669141015, -4444.577329704443, -10784.22496130764, 1662.4109938634629, 5673.006853223665, 4099.444043570047, 18535.966400619316, 0.018000000000000002, 1.01, -0.05, 192.0, 0.0, 0.0, 0.0, 0.0, 0.0, 0.0, 0.0, 0.0, 0.0, 1.694076839582821E9, 0.0, 2023-09-07 16:53:59.582
56.0, 3620.021476748166, -33550.92955242748, -4740.514426292709, -10359.117133512156, 1304.06782675598, 5365.82682917438, 3698.9678381643107, 18746.922164788506, 0.018000000000000002, 1.01, -0.05, 192.0, 0.0, 0.0, 0.0, 0.0, 0.0, 0.0, 0.0, 0.0, 0.0, 1.694076839582828E9, 0.0, 2023-09-07 16:53:59.582
57.0, 3508.061588771533, -33911.88787363623, -4869.595750522108, -11092.14259292395, 1228.2060060746678, 5190.812670089325, 3611.013723732677, 18755.147606748058, 0.018000000000000002, 1.01, -0.05, 192.0, 0.0, 0.0, 0.0, 0.0, 0.0, 0.0, 0.0, 0.0, 0.0, 1.694076839582835E9, 0.0, 2023-09-07 16:53:59.582
58.0, 3818.773188444756, -33856.43319564262, -4600.905430424861, -11788.421784451222, 1579.8212981011031, 5450.741106360091, 3977.068242677241, 18614.15280272398, 0.014, 1.012, -0.042, 192.0, 0.0, 112.0, 31.0, 160.0, 254.0, 176.0, 0.0, 0.0, 0.0, 1.694076839582842E9, 0.0, 2023-09-07 16:53:59.582
59.0, 4018.329562941738, -33332.083622465565, -4435.301355755491, -11000.254571468184, 1706.5109856737836, 5674.459716613259, 4096.426558068581, 18501.27649322468, 0.014, 1.012, -0.042, 192.0, 0.0, 0.0, 0.0, 0.0, 0.0, 0.0, 0.0, 0.0, 0.0, 1.694076839582888E9, 0.0, 2023-09-07 16:53:59.582
60.0, 3677.9571983763217, -33474.419531156964, -4695.162736792891, -10321.90147899407, 1348.994833111147, 5417.16878618822, 3760.9268737944217, 18694.686137996454, 0.014, 1.012, -0.042, 192.0, 0.0, 0.0, 0.0, 0.0, 0.0, 0.0, 0.0, 0.0, 0.0, 1.694076839582895E9, 0.0, 2023-09-07 16:53:59.582
61.0, 3471.8070592650247, -33883.72467562254, -4891.567515321674, -10957.518036069636, 1174.13713623728, 5168.1480012116435, 3594.741653769214, 18772.783133123296, 0.014, 1.012, -0.042, 192.0, 0.0, 0.0, 0.0, 0.0, 0.0, 0.0, 0.0, 0.0, 0.0, 1.69407683964251E9, 0.0, 2023-09-07 16:53:59.642
62.0, 3734.887091503989, -33917.69932719461, -4675.470849927766, -11757.106990469336, 1484.9381428883248, 5383.551762527438, 3896.937238804965, 18630.313113965167, 0.014, 1.012, -0.042, 192.0, 0.0, 0.0, 0.0, 0.0, 0.0, 0.0, 0.0, 0.0, 0.0, 1.694076839642533E9, 0.0, 2023-09-07 16:53:59.642
63.0, 4016.2508507073944, -33397.61893720853, -4440.755181402586, -11216.5971060511, 1709.886099086535, 5659.841675739489, 4097.052406913329, 18503.221094992292, 0.014, 1.012, -0.042, 192.0, 0.0, 0.0, 0.0, 0.0, 0.0, 0.0, 0.0, 0.0, 0.0, 1.694076839642541E9, 0.0, 2023-09-07 16:53:59.642
64.0, 3727.3769053670057, -33414.3380420611, -4662.395079421411, -10335.066656478246, 1393.2736388771104, 5435.810141063946, 3780.5070019372706, 18633.531765166732, 0.014, 1.012, -0.042, 192.0, 0.0, 0.0, 0.0, 0.0, 0.0, 0.0, 0.0, 0.0, 0.0, 1.69407683964255E9, 0.0, 2023-09-07 16:53:59.642
65.0, 3458.8206957364914, -33864.21160271306, -4904.77739629476, -10844.217043425686, 1153.9982144830483, 5167.0304139888785, 3566.42199354434, 18761.473150428912, 0.014, 1.012, -0.042, 192.0, 0.0, 0.0, 0.0, 0.0, 0.0, 0.0, 0.0, 0.0, 0.0, 1.694076839642558E9, 0.0, 2023-09-07 16:53:59.642
66.0, 3682.4275472673835, -33936.07246113688, -4719.7496556937285, -11670.002242327004, 1414.418389131831, 5340.479950962062, 3869.62340708058, 18657.626945689553, 0.014, 1.012, -0.042, 192.0, 0.0, 0.0, 0.0, 0.0, 0.0, 0.0, 0.0, 0.0, 0.0, 1.694076839642567E9, 0.0, 2023-09-07 16:53:59.642
67.0, 4035.585109661235, -33455.66641755896, -4422.247936993592, -11394.047605281783, 1729.466227229384, 5675.398489880382, 4152.127105251206, 18545.5776507351, 0.014, 1.012, -0.042, 192.0, 0.0, 0.0, 0.0, 0.0, 0.0, 0.0, 0.0, 0.0, 0.0, 1.694076839642575E9, 0.0, 2023-09-07 16:53:59.642
68.0, 3826.596299004114, -33326.562741585105, -4582.018206360127, -10358.0442497783, 1489.6990644573052, 5526.334706107939, 3863.364918633094, 18607.737852065307, 0.01, 1.014, -0.042, 192.0, 0.0, 80.0, 31.0, 176.0, 254.0, 176.0, 0.0, 0.0, 0.0, 1.694076839642583E9, 0.0, 2023-09-07 16:53:59.642
69.0, 3503.6806468582927, -33784.70644768554, -4860.67740448444, -10685.83258221538, 1196.7347498815955, 5213.387931989185, 3583.968112941756, 18791.916226377038, 0.01, 1.014, -0.042, 192.0, 0.0, 0.0, 0.0, 0.0, 0.0, 0.0, 0.0, 0.0, 0.0, 1.694076839642592E9, 0.0, 2023-09-07 16:53:59.642
70.0, 3620.848491293012, -33966.11320568481, -4777.797136044162, -11556.14245607167, 1356.773240181594, 5264.439316325106, 3753.975481268821, 18670.88153015155, 0.01, 1.014, -0.042, 192.0, 0.0, 0.0, 0.0, 0.0, 0.0, 0.0, 0.0, 0.0, 0.0, 1.6940768396426E9, 0.0, 2023-09-07 16:53:59.642
71.0, 4006.5725453582463, -33558.819718220206, -4442.766838403563, -11560.568101473822, 1727.9686603508785, 5632.505492270648, 4119.940593235564, 18545.309429801637, 0.01, 1.014, -0.042, 192.0, 0.0, 0.0, 0.0, 0.0, 0.0, 0.0, 0.0, 0.0, 0.0, 1.694076839642608E9, 0.0, 2023-09-07 16:53:59.642
72.0, 3891.3493026911383, -33275.42195027137, -4527.010563255616, -10428.184023879056, 1545.6007773400281, 5575.53089565407, 3948.9944516413752, 18563.928432932906, 0.01, 1.014, -0.042, 192.0, 0.0, 0.0, 0.0, 0.0, 0.0, 0.0, 0.0, 0.0, 0.0, 1.694076839642616E9, 0.0, 2023-09-07 16:53:59.642
73.0, 3528.1334552923986, -33716.91360675259, -4830.256680280767, -10556.661851008159, 1197.9193923377268, 5244.233339337509, 3619.3956279034173, 18786.61886294113, 0.01, 1.014, -0.042, 192.0, 0.0, 0.0, 0.0, 0.0, 0.0, 0.0, 0.0, 0.0, 0.0, 1.694076839642625E9, 0.0, 2023-09-07 16:53:59.642
74.0, 3561.236388830708, -33962.53692657196, -4820.690133653896, -11421.719064917454, 1286.8569835253936, 5221.792187904381, 3702.7452829772574, 18696.742498486343, 0.01, 1.014, -0.042, 192.0, 0.0, 0.0, 0.0, 0.0, 0.0, 0.0, 0.0, 0.0, 0.0, 1.694076839642633E9, 0.0, 2023-09-07 16:53:59.642
75.0, 3940.836064915188, -33670.578440496734, -4488.274990114569, -11698.098385107325, 1673.2515899242867, 5583.756337613623, 4116.431369356081, 18573.405572581956, 0.01, 1.014, -0.042, 192.0, 0.0, 0.0, 0.0, 0.0, 0.0, 0.0, 0.0, 0.0, 0.0, 1.694076839642665E9, 0.0, 2023-09-07 16:53:59.642
76.0, 3959.9244546800205, -33252.332598249035, -4473.522838774066, -10568.441220336106, 1620.054438120656, 5622.804835177045, 4044.6375661656343, 18559.681601486398, 0.01, 1.014, -0.042, 192.0, 0.0, 0.0, 0.0, 0.0, 0.0, 0.0, 0.0, 0.0, 0.0, 1.694076839702752E9, 0.0, 2023-09-07 16:53:59.702
77.0, 3598.116767181965, -33621.248140483876, -4760.98862421377, -10439.06932342879, 1266.8521722378937, 5305.946505778612, 3718.167986651419, 18803.181505582514, 0.01, 1.014, -0.042, 192.0, 0.0, 0.0, 0.0, 0.0, 0.0, 0.0, 0.0, 0.0, 0.0, 1.694076839702782E9, 0.0, 2023-09-07 16:53:59.702
78.0, 3545.7689816676357, -33938.03941464894, -4838.504473984775, -11277.03622305825, 1253.8211052204497, 5201.206231261043, 3704.555774278137, 18735.545126860754, 0.01, 1.012, -0.042, 192.0, 0.0, 80.0, 31.0, 160.0, 254.0, 176.0, 0.0, 0.0, 0.0, 1.69407683970279E9, 0.0, 2023-09-07 16:53:59.702
79.0, 3908.2248697548953, -33747.75901410091, -4526.272955688591, -11768.506380141544, 1642.048554664678, 5522.266688617074, 4079.1710113490835, 18605.122697964038, 0.01, 1.012, -0.042, 192.0, 0.0, 0.0, 0.0, 0.0, 0.0, 0.0, 0.0, 0.0, 0.0, 1.694076839702798E9, 0.0, 2023-09-07 16:53:59.702
80.0, 3991.3733591286373, -33259.529859963644, -4448.2653675395695, -10744.79648408848, 1661.4275171074294, 5637.847559195467, 4060.775525662366, 18524.99169409176, 0.01, 1.012, -0.042, 192.0, 0.0, 0.0, 0.0, 0.0, 0.0, 0.0, 0.0, 0.0, 0.0, 1.694076839702806E9, 0.0, 2023-09-07 16:53:59.702
81.0, 3634.6395176219366, -33565.30172411224, -4740.737943737262, -10378.518447699362, 1285.359416646888, 5342.737477152047, 3716.849233728556, 18749.24674621186, 0.01, 1.012, -0.042, 192.0, 0.0, 0.0, 0.0, 0.0, 0.0, 0.0, 0.0, 0.0, 0.0, 1.694076839702813E9, 0.0, 2023-09-07 16:53:59.702
82.0, 3515.2364987416863, -33927.176466843666, -4863.2478550968, -11135.057942278141, 1209.7211134101287, 5173.847696047747, 3657.4830004552605, 18747.033923510782, 0.01, 1.012, -0.042, 192.0, 0.0, 0.0, 0.0, 0.0, 0.0, 0.0, 0.0, 0.0, 0.0, 1.694076839702821E9, 0.0, 2023-09-07 16:53:59.702
83.0, 3842.555444545203, -33831.64511104168, -4572.04932833306, -11786.790107105984, 1577.4296614443854, 5469.516571702549, 4035.8756823391536, 18615.78448006922, 0.01, 1.012, -0.042, 192.0, 0.0, 0.0, 0.0, 0.0, 0.0, 0.0, 0.0, 0.0, 0.0, 1.694076839702828E9, 0.0, 2023-09-07 16:53:59.702
84.0, 4030.153635758595, -33294.689153991836, -4408.63572462031, -10931.92528866831, 1692.0494070112, 5670.88343750041, 4145.354526681248, 18516.721548643298, 0.01, 1.012, -0.042, 192.0, 0.0, 0.0, 0.0, 0.0, 0.0, 0.0, 0.0, 0.0, 0.0, 1.694076839702836E9, 0.0, 2023-09-07 16:53:59.702
85.0, 3681.466422255805, -33480.946240537916, -4674.710890616285, -10313.47487133442, 1334.1756265372785, 5397.432195834183, 3803.9316301264325, 18717.66373129651, 0.01, 1.012, -0.042, 192.0, 0.0, 0.0, 0.0, 0.0, 0.0, 0.0, 0.0, 0.0, 0.0, 1.694076839702843E9, 0.0, 2023-09-07 16:53:59.702
86.0, 3495.7234258322032, -33886.13866402372, -4861.549122518197, -10985.256550938673, 1177.7581188390398, 5160.503704607929, 3648.430543950861, 18771.352621478156, 0.01, 1.012, -0.042, 192.0, 0.0, 0.0, 0.0, 0.0, 0.0, 0.0, 0.0, 0.0, 0.0, 1.69407683970285E9, 0.0, 2023-09-07 16:53:59.702
87.0, 3781.043443804198, -33883.92584132264, -4619.3903230894, -11758.001060247549, 1522.511425317696, 5391.821907975902, 3969.848629218177, 18622.244134216802, 0.01, 1.012, -0.042, 192.0, 0.0, 0.0, 0.0, 0.0, 0.0, 0.0, 0.0, 0.0, 0.0, 1.694076839702857E9, 0.0, 2023-09-07 16:53:59.702
88.0, 4039.4296097075476, -33362.75021585825, -4398.398625659779, -11147.06082905064, 1735.3000325322191, 5641.937928430788, 4143.8569598027425, 18496.157943744416, 0.008, 1.01, -0.044, 192.0, 0.0, 64.0, 31.0, 144.0, 254.0, 160.0, 0.0, 0.0, 0.0, 1.694076839702865E9, 0.0, 2023-09-07 16:53:59.702
89.0, 3749.5945393555808, -33421.42354505343, -4629.850939494484, -10323.913135995048, 1396.4475865897641, 5433.686725340692, 3830.463150794882, 18651.681381664443, 0.008, 1.01, -0.044, 192.0, 0.0, 0.0, 0.0, 0.0, 0.0, 0.0, 0.0, 0.0, 0.0, 1.694076839702873E9, 0.0, 2023-09-07 16:53:59.702
90.0, 3510.0061905391444, -33845.860820515256, -4849.076849112135, -10857.181055209763, 1165.978749511093, 5170.6737483350935, 3633.5889856325375, 18781.09798206067, 0.008, 1.01, -0.044, 192.0, 0.0, 0.0, 0.0, 0.0, 0.0, 0.0, 0.0, 0.0, 0.0, 1.69407683970288E9, 0.0, 2023-09-07 16:53:59.702
91.0, 3723.331239620595, -33924.38249878675, -4665.501971900699, -11678.250036031013, 1436.6583748648613, 5343.430381230161, 3901.1170150181074, 18652.59780318711, 0.008, 1.01, -0.044, 192.0, 0.0, 0.0, 0.0, 0.0, 0.0, 0.0, 0.0, 0.0, 0.0, 1.694076839763021E9, 0.0, 2023-09-07 16:53:59.763
92.0, 4034.668688138567, -33460.67320831695, -4404.366541429346, -11355.602604818656, 1723.0959800596215, 5641.557948775047, 4155.770439597421, 18515.536906187168, 0.008, 1.01, -0.044, 192.0, 0.0, 0.0, 0.0, 0.0, 0.0, 0.0, 0.0, 0.0, 0.0, 1.694076839763053E9, 0.0, 2023-09-07 16:53:59.763
93.0, 3816.3368482991277, -33338.02918649068, -4559.130020037892, -10341.459255392463, 1458.3619187309646, 5511.962534423177, 3912.9634395794205, 18619.58427662662, 0.008, 1.01, -0.044, 192.0, 0.0, 0.0, 0.0, 0.0, 0.0, 0.0, 0.0, 0.0, 0.0, 1.694076839763062E9, 0.0, 2023-09-07 16:53:59.763
94.0, 3509.469748672217, -33774.134072558176, -4813.157595772457, -10703.35634986834, 1196.8241568594167, 5207.352960986253, 3657.2594830107073, 18798.465287502444, 0.008, 1.01, -0.044, 192.0, 0.0, 0.0, 0.0, 0.0, 0.0, 0.0, 0.0, 0.0, 0.0, 1.694076839763069E9, 0.0, 2023-09-07 16:53:59.763
95.0, 3646.3518317165176, -33944.633179263255, -4712.574745723575, -11572.392174290679, 1371.8159642000157, 5281.918380489156, 3851.742011516334, 18671.261509807293, 0.008, 1.01, -0.044, 192.0, 0.0, 0.0, 0.0, 0.0, 0.0, 0.0, 0.0, 0.0, 0.0, 1.694076839763077E9, 0.0, 2023-09-07 16:53:59.763
96.0, 4010.6629145935676, -33556.718654241406, -4415.564765401455, -11522.90541206663, 1718.6479829130153, 5624.436512522282, 4160.129029766206, 18528.746787160253, 0.008, 1.01, -0.044, 192.0, 0.0, 0.0, 0.0, 0.0, 0.0, 0.0, 0.0, 0.0, 0.0, 1.694076839763084E9, 0.0, 2023-09-07 16:53:59.763
97.0, 3888.0859480006634, -33301.059401161605, -4518.9415835072505, -10421.29968658682, 1527.2052916533103, 5556.9118925227995, 3951.654309231557, 18564.509578288744, 0.008, 1.01, -0.044, 192.0, 0.0, 0.0, 0.0, 0.0, 0.0, 0.0, 0.0, 0.0, 0.0, 1.694076839763091E9, 0.0, 2023-09-07 16:53:59.763
98.0, 3520.8467865999687, -33744.003921032425, -4811.57062191613, -10604.695749842615, 1205.4295784747098, 5227.93891762959, 3640.652136880414, 18773.252519756858, 0.008, 1.01, -0.044, 192.0, 0.0, 0.0, 31.0, 96.0, 254.0, 96.0, 0.0, 0.0, 0.0, 1.694076839763099E9, 0.0, 2023-09-07 16:53:59.763
99.0, 3571.317025580052, -33980.507729114026, -4780.144069211969, -11467.249568372914, 1311.6897716152396, 5222.932126871601, 3761.0386325166983, 18678.54817849972, 0.008, 1.01, -0.044, 192.0, 0.0, 0.0, 0.0, 0.0, 0.0, 0.0, 0.0, 0.0, 0.0, 1.694076839763107E9, 0.0, 2023-09-07 16:53:59.763
100.0, 3952.3695650541267, -33667.784472439824, -4461.341138045924, -11674.003204584504, 1677.5207731152504, 5583.421061446794, 4124.969735738008, 18551.456159526846, 0.008, 1.01, -0.044, 192.0, 0.0, 0.0, 0.0, 0.0, 0.0, 0.0, 0.0, 0.0, 0.0, 1.694076839763114E9, 0.0, 2023-09-07 16:53:59.763
101.0, 3919.758369893834, -33282.77567419716, -4476.294455086524, -10543.809597946358, 1581.0953475350557, 5600.989532588665, 4020.8106065762768, 18539.117996587516, 0.008, 1.01, -0.044, 192.0, 0.0, 0.0, 0.0, 0.0, 0.0, 0.0, 0.0, 0.0, 0.0, 1.694076839763121E9, 0.0, 2023-09-07 16:53:59.763
102.0, 3531.2626995161418, -33698.24990013241, -4792.392825173477, -10503.442347460074, 1213.9902966010925, 5240.7017637135705, 3664.367337747495, 18772.559615678743, 0.008, 1.01, -0.044, 192.0, 0.0, 0.0, 0.0, 0.0, 0.0, 0.0, 0.0, 0.0, 0.0, 1.694076839763129E9, 0.0, 2023-09-07 16:53:59.763
103.0, 3545.187836311798, -33971.835252265366, -4815.146901028979, -11328.556994027735, 1231.0893811094024, 5198.568725415316, 3688.0601868701206, 18704.565609045698, 0.008, 1.01, -0.044, 192.0, 0.0, 0.0, 0.0, 0.0, 0.0, 0.0, 0.0, 0.0, 0.0, 1.694076839763136E9, 0.0, 2023-09-07 16:53:59.763
104.0, 3930.5319107212918, -33754.19631650404, -4493.3488361059235, -11755.520016613009, 1640.9756709308233, 5538.739924280635, 4063.055403596807, 18570.701011502864, 0.008, 1.01, -0.044, 192.0, 0.0, 0.0, 0.0, 0.0, 0.0, 0.0, 0.0, 0.0, 0.0, 1.694076839763143E9, 0.0, 2023-09-07 16:53:59.763
105.0, 3983.4384898470034, -33275.73487469374, -4438.765876146063, -10700.964713211622, 1639.2992900966753, 5635.277108583106, 4061.2225605514723, 18516.60978992102, 0.008, 1.01, -0.044, 192.0, 0.0, 0.0, 0.0, 0.0, 0.0, 0.0, 0.0, 0.0, 0.0, 1.694076839763151E9, 0.0, 2023-09-07 16:53:59.763
106.0, 3597.088586937021, -33601.62330885212, -4736.580519268575, -10408.20156433601, 1280.3973293778097, 5320.363380952284, 3712.557698793137, 18758.209795738436, 0.008, 1.01, -0.044, 192.0, 0.0, 0.0, 0.0, 0.0, 0.0, 0.0, 0.0, 0.0, 0.0, 1.694076839823405E9, 0.0, 2023-09-07 16:53:59.823
107.0, 3513.5824696519935, -33928.29405406643, -4821.047761565181, -11166.931529871408, 1236.4761515231314, 5182.810745574325, 3706.2992103456513, 18762.85895858514, 0.008, 1.01, -0.044, 192.0, 0.0, 0.0, 0.0, 0.0, 0.0, 0.0, 0.0, 0.0, 0.0, 1.694076839823472E9, 0.0, 2023-09-07 16:53:59.823
108.0, 3861.688537798946, -33809.3827735642, -4526.876452788884, -11768.171103974713, 1596.6521616759494, 5491.823612668945, 4077.7628514483995, 18628.077939519637, 0.008, 1.0, -0.066, 192.0, 0.0, 64.0, 31.0, 64.0, 253.0, 240.0, 0.0, 0.0, 0.0, 1.69407683982348E9, 0.0, 2023-09-07 16:53:59.823
109.0, 4008.7630163148665, -33300.634718016954, -4405.685294352209, -10877.699956619736, 1679.8453545386024, 5655.058402426052, 4132.926956764097, 18533.083025584583, 0.008, 1.0, -0.066, 192.0, 0.0, 0.0, 0.0, 0.0, 0.0, 0.0, 0.0, 0.0, 0.0, 1.694076839823488E9, 0.0, 2023-09-07 16:53:59.823
110.0, 3631.465569909283, -33544.045215135244, -4692.92756234736, -10354.780895087826, 1323.424437454276, 5365.513904752005, 3770.26990297674, 18726.872650012094, 0.008, 1.0, -0.066, 192.0, 0.0, 0.0, 0.0, 0.0, 0.0, 0.0, 0.0, 0.0, 0.0, 1.694076839823495E9, 0.0, 2023-09-07 16:53:59.823
111.0, 3486.939190261268, -33927.39998428822, -4852.362555547065, -11044.533377234147, 1203.0826453069026, 5155.787486527859, 3642.7755526036685, 18767.061086542737, 0.008, 1.0, -0.066, 192.0, 0.0, 0.0, 0.0, 0.0, 0.0, 0.0, 0.0, 0.0, 0.0, 1.694076839823502E9, 0.0, 2023-09-07 16:53:59.823
112.0, 3804.13279582653, -33890.51960593696, -4588.053177363059, -11768.685194097185, 1540.7504487932265, 5422.913184513233, 3992.937981240509, 18643.008904815782, 0.008, 1.0, -0.066, 192.0, 0.0, 0.0, 0.0, 0.0, 0.0, 0.0, 0.0, 0.0, 0.0, 1.694076839823509E9, 0.0, 2023-09-07 16:53:59.823
113.0, 4029.5277869138467, -33372.428521207396, -4400.812614060952, -11096.948217981842, 1725.9570033499008, 5663.775582763623, 4133.463398631025, 18509.18901076186, 0.008, 1.0, -0.066, 192.0, 0.0, 0.0, 0.0, 0.0, 0.0, 0.0, 0.0, 0.0, 0.0, 1.694076839823515E9, 0.0, 2023-09-07 16:53:59.823
114.0, 3717.564489551126, -33449.609094811574, -4628.889814482905, -10315.41947310203, 1411.0879792079902, 5439.40877192125, 3811.4641680078707, 18685.208998347403, 0.008, 1.0, -0.066, 192.0, 0.0, 0.0, 0.0, 0.0, 0.0, 0.0, 0.0, 0.0, 0.0, 1.694076839823523E9, 0.0, 2023-09-07 16:53:59.823
115.0, 3492.0800914859883, -33875.298067962896, -4843.980651376325, -10881.209180499218, 1197.1147295373357, 5187.6387223766715, 3625.922337284367, 18798.845267158184, 0.008, 1.0, -0.066, 192.0, 0.0, 0.0, 0.0, 0.0, 0.0, 0.0, 0.0, 0.0, 0.0, 1.69407683982353E9, 0.0, 2023-09-07 16:53:59.823
116.0, 3728.1145129340307, -33946.041339163945, -4659.131724730936, -11703.373396798777, 1459.4571542092747, 5357.132000581265, 3911.577631423191, 18654.40829448799, 0.008, 1.0, -0.066, 192.0, 0.0, 0.0, 0.0, 0.0, 0.0, 0.0, 0.0, 0.0, 0.0, 1.694076839823537E9, 0.0, 2023-09-07 16:53:59.823
117.0, 4029.840711336221, -33445.80929825417, -4394.732939569109, -11294.04590058874, 1729.1533028070096, 5658.433515838804, 4168.913265337142, 18523.024740579694, 0.01, 1.008, -0.068, 192.0, 0.0, 80.0, 31.0, 128.0, 253.0, 224.0, 0.0, 0.0, 0.0, 1.694076839823544E9, 0.0, 2023-09-07 16:53:59.823
118.0, 3789.5147549527596, -33379.29050675518, -4578.2854650360905, -10329.724589553427, 1434.3784969304202, 5482.122955575342, 3899.5076894173253, 18641.153710025992, 0.01, 1.008, -0.068, 192.0, 0.0, 0.0, 0.0, 0.0, 0.0, 0.0, 0.0, 0.0, 0.0, 1.694076839823551E9, 0.0, 2023-09-07 16:53:59.823
119.0, 3500.618457867916, -33828.31470111784, -4838.392715262498, -10753.84894059288, 1167.1186884783135, 5161.442477875052, 3629.610375119493, 18797.258293301857, 0.01, 1.008, -0.068, 192.0, 0.0, 0.0, 0.0, 0.0, 0.0, 0.0, 0.0, 0.0, 0.0, 1.694076839823558E9, 0.0, 2023-09-07 16:53:59.823
120.0, 3671.698709928836, -33963.498051583534, -4708.484376488254, -11610.032511953415, 1398.3698366129204, 5313.210822726586, 3846.5787585471585, 18685.56662625869, 0.01, 1.008, -0.068, 192.0, 0.0, 0.0, 0.0, 0.0, 0.0, 0.0, 0.0, 0.0, 0.0, 1.694076839823565E9, 0.0, 2023-09-07 16:53:59.823
121.0, 4029.3042694692936, -33518.675985178474, -4393.838869790897, -11464.813228227285, 1760.6469107445373, 5666.413088609349, 4185.87823937872, 18568.95757543535, 0.01, 1.008, -0.068, 192.0, 0.0, 0.0, 0.0, 0.0, 0.0, 0.0, 0.0, 0.0, 0.0, 1.694076839883679E9, 0.0, 2023-09-07 16:53:59.883
122.0, 3866.5388663457475, -33311.83294198906, -4516.214670683703, -10384.86634312467, 1523.7854747516483, 5568.400689172828, 3961.8243529587216, 18615.292741691203, 0.01, 1.008, -0.068, 192.0, 0.0, 0.0, 0.0, 0.0, 0.0, 0.0, 0.0, 0.0, 0.0, 1.694076839883854E9, 0.0, 2023-09-07 16:53:59.883
123.0, 3534.2354815286976, -33754.688054882055, -4793.219839718323, -10614.23994472503, 1207.4188837312322, 5253.486961542006, 3662.3333290020623, 18835.09979666469, 0.01, 1.008, -0.068, 192.0, 0.0, 0.0, 0.0, 0.0, 0.0, 0.0, 0.0, 0.0, 0.0, 1.694076839883862E9, 0.0, 2023-09-07 16:53:59.883
124.0, 3614.4782441232496, -33971.09764469834, -4741.766123982206, -11478.89482723413, 1360.193057083256, 5264.573426791839, 3800.8470893916, 18725.710359300418, 0.01, 1.008, -0.068, 192.0, 0.0, 0.0, 0.0, 0.0, 0.0, 0.0, 0.0, 0.0, 0.0, 1.69407683988387E9, 0.0, 2023-09-07 16:53:59.883
125.0, 3964.5959692711795, -33648.025530341336, -4442.789190148019, -11636.005239010483, 1715.2952212447192, 5596.072148808497, 4141.733544079488, 18571.930357447905, 0.01, 1.008, -0.068, 192.0, 0.0, 0.0, 0.0, 0.0, 0.0, 0.0, 0.0, 0.0, 0.0, 1.694076839883877E9, 0.0, 2023-09-07 16:53:59.883
126.0, 3905.386198209071, -33295.96320342579, -4479.580161521454, -10512.092472564278, 1579.1730975118992, 5600.318980255006, 4004.6055918461793, 18572.779723737207, 0.01, 1.008, -0.068, 192.0, 0.0, 0.0, 0.0, 0.0, 0.0, 0.0, 0.0, 0.0, 0.0, 1.694076839883884E9, 0.0, 2023-09-07 16:53:59.883
127.0, 3554.642624216393, -33694.96419369748, -4759.893388735461, -10508.359731240242, 1241.4829422811201, 5300.8056045538915, 3701.7618062212237, 18827.187279127513, 0.022, 1.014, -0.066, 192.0, 0.0, 176.0, 31.0, 176.0, 253.0, 240.0, 0.0, 0.0, 0.0, 1.694076839883892E9, 0.0, 2023-09-07 16:53:59.883
128.0, 3551.0439933590883, -33976.506766856524, -4796.796118831172, -11359.178883931505, 1274.362358374877, 5212.247993021964, 3739.245681672774, 18739.99312400736, 0.022, 1.014, -0.066, 192.0, 0.0, 0.0, 0.0, 0.0, 0.0, 0.0, 0.0, 0.0, 0.0, 1.6940768398839E9, 0.0, 2023-09-07 16:53:59.883
129.0, 3929.906061876543, -33726.81542954629, -4467.97960614915, -11729.279068622478, 1685.6121046080716, 5554.877883777366, 4120.633497313678, 18604.876828775028, 0.022, 1.014, -0.066, 192.0, 0.0, 0.0, 0.0, 0.0, 0.0, 0.0, 0.0, 0.0, 0.0, 1.694076839883907E9, 0.0, 2023-09-07 16:53:59.883
130.0, 3970.1839053850063, -33275.667819460374, -4433.624974921343, -10646.761732907502, 1641.9814994313122, 5651.996213435676, 4074.5889037357456, 18566.320069589623, 0.022, 1.014, -0.066, 192.0, 0.0, 0.0, 0.0, 0.0, 0.0, 0.0, 0.0, 0.0, 0.0, 1.694076839883914E9, 0.0, 2023-09-07 16:53:59.883
131.0, 3610.9019650104005, -33614.90024505857, -4727.483359275265, -10410.481442270451, 1285.4711753691645, 5329.706410134603, 3721.0290099416984, 18807.160116095558, 0.022, 1.014, -0.066, 192.0, 0.0, 0.0, 0.0, 0.0, 0.0, 0.0, 0.0, 0.0, 0.0, 1.694076839883921E9, 0.0, 2023-09-07 16:53:59.883
132.0, 3540.7174874207367, -33941.548638528424, -4823.014715077247, -11198.31337908666, 1246.5120847835642, 5182.0731380073, 3689.177774092886, 18769.51977843282, 0.022, 1.014, -0.066, 192.0, 0.0, 0.0, 0.0, 0.0, 0.0, 0.0, 0.0, 0.0, 0.0, 1.694076839883928E9, 0.0, 2023-09-07 16:53:59.883
133.0, 3883.950875276432, -33792.64131696717, -4514.761807294108, -11756.65995558023, 1636.795894717681, 5511.291982089518, 4057.065136082785, 18638.762073369275, 0.022, 1.014, -0.066, 192.0, 0.0, 0.0, 0.0, 0.0, 0.0, 0.0, 0.0, 0.0, 0.0, 1.694076839883935E9, 0.0, 2023-09-07 16:53:59.883
134.0, 4008.1818709590284, -33283.69209571983, -4401.1925937166925, -10815.495051800615, 1686.6402848530156, 5669.7882020221, 4108.429444841081, 18540.39204602147, 0.022, 1.014, -0.066, 192.0, 0.0, 0.0, 0.0, 0.0, 0.0, 0.0, 0.0, 0.0, 0.0, 1.694076839883942E9, 0.0, 2023-09-07 16:53:59.883
135.0, 3648.207026506308, -33535.68566270896, -4680.991730808226, -10342.107455981668, 1326.7548473781167, 5379.304931080929, 3763.1620482399526, 18762.121351018115, 0.022, 1.014, -0.066, 192.0, 0.0, 0.0, 0.0, 0.0, 0.0, 0.0, 0.0, 0.0, 0.0, 1.694076839883949E9, 0.0, 2023-09-07 16:53:59.883
136.0, 3485.5533821050385, -33929.322234311374, -4848.696869456395, -11065.968700166786, 1201.3168574949334, 5166.0692889773, 3651.313918985596, 18779.153380293057, 0.022, 1.014, -0.066, 192.0, 0.0, 0.0, 0.0, 0.0, 0.0, 0.0, 0.0, 0.0, 0.0, 1.694076839943011E9, 0.0, 2023-09-07 16:53:59.943
137.0, 3801.852917892089, -33884.26111748947, -4579.917142381328, -11777.022394779015, 1562.3869374259637, 5421.88500426829, 3992.1556701845734, 18634.001151800294, 0.024, 1.016, -0.064, 192.0, 0.0, 192.0, 31.0, 192.0, 254.0, 0.0, 0.0, 0.0, 0.0, 1.694076839943056E9, 0.0, 2023-09-07 16:53:59.943
138.0, 4032.411161948581, -33340.57728535859, -4383.378253385813, -11031.636420683435, 1719.9667358358786, 5667.016585709642, 4150.24955871696, 18535.832290152586, 0.024, 1.016, -0.064, 192.0, 0.0, 0.0, 0.0, 0.0, 0.0, 0.0, 0.0, 0.0, 0.0, 1.694076839943093E9, 0.0, 2023-09-07 16:53:59.943
139.0, 3714.569355794115, -33457.81218502667, -4625.738218514707, -10316.917039980537, 1379.0802811479905, 5427.472940382117, 3828.585604260636, 18733.24289718186, 0.024, 1.016, -0.064, 192.0, 0.0, 0.0, 0.0, 0.0, 0.0, 0.0, 0.0, 0.0, 0.0, 1.694076839943101E9, 0.0, 2023-09-07 16:53:59.943
140.0, 3467.4931725851507, -33903.55067295441, -4859.783334706228, -10943.391733573882, 1183.3460549528666, 5145.460980589507, 3613.0700842225656, 18794.03964210029, 0.024, 1.016, -0.064, 192.0, 0.0, 0.0, 0.0, 0.0, 0.0, 0.0, 0.0, 0.0, 0.0, 1.694076839943109E9, 0.0, 2023-09-07 16:53:59.943
141.0, 3703.3264283330955, -33963.18512716116, -4669.25706496919, -11759.90095852625, 1479.3278550300427, 5335.719029393081, 3889.5835148791693, 18626.55802089668, 0.024, 1.016, -0.064, 192.0, 0.0, 0.0, 0.0, 0.0, 0.0, 0.0, 0.0, 0.0, 0.0, 1.694076839943117E9, 0.0, 2023-09-07 16:53:59.943
142.0, 4014.3062489397826, -33432.688824258905, -4405.282962952014, -11257.61255712659, 1736.1270470770655, 5649.649280267869, 4126.824930527799, 18510.843039851552, 0.024, 1.016, -0.064, 192.0, 0.0, 0.0, 0.0, 0.0, 0.0, 0.0, 0.0, 0.0, 0.0, 1.694076839943125E9, 0.0, 2023-09-07 16:53:59.943
143.0, 3749.527484122215, -33415.94736766188, -4612.2154131192465, -10345.773142072338, 1423.515549125141, 5451.903397071766, 3837.325136342661, 18651.368457242068, 0.024, 1.016, -0.064, 192.0, 0.0, 0.0, 0.0, 0.0, 0.0, 0.0, 0.0, 0.0, 0.0, 1.694076839943133E9, 0.0, 2023-09-07 16:53:59.943
144.0, 3480.770108791603, -33850.37587289523, -4849.233311323323, -10802.32987431644, 1177.7357670945844, 5166.471620377496, 3634.214834477286, 18807.607150984662, 0.024, 1.016, -0.064, 192.0, 0.0, 0.0, 0.0, 0.0, 0.0, 0.0, 0.0, 0.0, 0.0, 1.694076839943141E9, 0.0, 2023-09-07 16:53:59.943
145.0, 3671.2293232952743, -33963.83332775037, -4697.576725194064, -11638.151006478192, 1418.7099240672499, 5325.236061243541, 3857.486409841348, 18687.22065534838, 0.024, 1.016, -0.064, 192.0, 0.0, 0.0, 0.0, 0.0, 0.0, 0.0, 0.0, 0.0, 0.0, 1.694076839943148E9, 0.0, 2023-09-07 16:53:59.943
146.0, 4025.7056386119893, -33508.260072262296, -4405.953515285672, -11425.675323686042, 1746.0065181263112, 5648.084658155997, 4140.303032434348, 18557.87111018552, 0.024, 1.016, -0.064, 192.0, 0.0, 0.0, 0.0, 0.0, 0.0, 0.0, 0.0, 0.0, 0.0, 1.694076839943156E9, 0.0, 2023-09-07 16:53:59.943
147.0, 3852.6360812945463, -33324.17110492839, -4530.743304579652, -10359.854741079182, 1509.4580065557966, 5535.834197501445, 3926.575651952702, 18626.87094531905, 0.02, 1.016, -0.066, 192.0, 0.0, 160.0, 31.0, 192.0, 253.0, 240.0, 0.0, 0.0, 0.0, 1.694076839943164E9, 0.0, 2023-09-07 16:53:59.943
148.0, 3528.0664000590327, -33762.667627652605, -4799.8136043326385, -10635.00471532401, 1209.1399680542909, 5230.554071730861, 3669.4635354833053, 18838.83253798873, 0.02, 1.016, -0.066, 192.0, 0.0, 0.0, 0.0, 0.0, 0.0, 0.0, 0.0, 0.0, 0.0, 1.694076839943172E9, 0.0, 2023-09-07 16:53:59.943
149.0, 3614.8135202900794, -33967.40960686321, -4746.996432184748, -11511.28250494987, 1356.5273709925857, 5268.239112882508, 3805.429197004938, 18730.51598435831, 0.02, 1.016, -0.066, 192.0, 0.0, 0.0, 0.0, 0.0, 0.0, 0.0, 0.0, 0.0, 0.0, 1.69407683994318E9, 0.0, 2023-09-07 16:53:59.943
150.0, 3981.8291642462214, -33598.851692539654, -4436.173073789248, -11583.38923256269, 1719.7655701357808, 5589.3666254719055, 4161.268968733427, 18592.091630946594, 0.02, 1.016, -0.066, 192.0, 0.0, 0.0, 0.0, 0.0, 0.0, 0.0, 0.0, 0.0, 0.0, 1.694076839943187E9, 0.0, 2023-09-07 16:53:59.943
151.0, 3890.1870119794626, -33293.81743595808, -4501.529574576566, -10465.802009797337, 1553.960329766313, 5564.913817037799, 4004.672647079545, 18601.07703221763, 0.02, 1.016, -0.066, 192.0, 0.0, 0.0, 0.0, 0.0, 0.0, 0.0, 0.0, 0.0, 0.0, 1.694076840002821E9, 0.0, 2023-09-07 16:54:00.002
152.0, 3529.541615193083, -33718.58998758674, -4797.891354309482, -10540.501539766972, 1208.9835058431038, 5260.036022667411, 3685.914419402411, 18832.641104774608, 0.02, 1.016, -0.066, 192.0, 0.0, 0.0, 0.0, 0.0, 0.0, 0.0, 0.0, 0.0, 0.0, 1.694076840002856E9, 0.0, 2023-09-07 16:54:00.002
