%OpenBCI Raw EXG Data
%Number of channels = 8
%Sample Rate = 250 Hz
%Board = OpenBCI_GUI$BoardCytonSerial
Sample Index, EXG Channel 0, EXG Channel 1, EXG Channel 2, EXG Channel 3, EXG Channel 4, EXG Channel 5, EXG Channel 6, EXG Channel 7, Accel Channel 0, Accel Channel 1, Accel Channel 2, Other, Other, Other, Other, Other, Other, Other, Analog Channel 0, Analog Channel 1, Analog Channel 2, Timestamp, Other, Timestamp (Formatted)
0.0, 0.0, 0.0, 0.0, 0.0, 0.0, 0.0, 0.0, 0.0, 0.0, 0.0, 0.0, 192.0, 0.0, 0.0, 0.0, 0.0, 0.0, 0.0, 0.0, 0.0, 0.0, 1.69407679480052E9, 0.0, 2023-09-07 16:53:14.800
1.0, 2999.7158646244843, -34314.64395697641, -5271.346005361796, -12299.360310955086, 1176.685235105185, 4489.325522103968, 3601.4918805947163, 17168.307860887988, 0.038, 1.012, -0.038, 192.0, 1.0, 48.0, 31.0, 160.0, 254.0, 208.0, 0.0, 0.0, 0.0, 1.694076794816483E9, 0.0, 2023-09-07 16:53:14.816
2.0, 3175.1770585986446, -33860.16593696665, -5120.20350935501, -11559.182293317592, 1295.194184207223, 4679.114184273981, 3700.4430532983606, 17018.104138148326, 0.038, 1.012, -0.038, 192.0, 0.0, 0.0, 0.0, 0.0, 0.0, 0.0, 0.0, 0.0, 0.0, 1.69407679487483E9, 0.0, 2023-09-07 16:53:14.874
3.0, 2861.671490868508, -34091.19356765671, -5358.651919204226, -11195.161783118461, 969.9986541269606, 4428.64053590781, 3395.2076310166876, 17319.159784216856, 0.038, 1.012, -0.038, 192.0, 0.0, 0.0, 0.0, 0.0, 0.0, 0.0, 0.0, 0.0, 0.0, 1.694076794874863E9, 0.0, 2023-09-07 16:53:14.874
4.0, 2726.666954358453, -34436.326853791106, -5502.932429663233, -11855.767590495061, 866.1748011320593, 4248.708993042587, 3282.778356406493, 17330.492118655697, 0.038, 1.012, -0.038, 192.0, 0.0, 0.0, 0.0, 0.0, 0.0, 0.0, 0.0, 0.0, 0.0, 1.694076794874877E9, 0.0, 2023-09-07 16:53:14.874
5.0, 2939.992003439904, -34391.44455092485, -5321.81624434188, -12332.44089274894, 1120.5153012889984, 4431.523910942544, 3514.610649896938, 17191.799544310517, 0.038, 1.012, -0.038, 192.0, 0.0, 0.0, 0.0, 0.0, 0.0, 0.0, 0.0, 0.0, 0.0, 1.694076794874891E9, 0.0, 2023-09-07 16:53:14.874
6.0, 3176.0264248879466, -33923.734298197545, -5135.357992095708, -11734.263507636013, 1308.5605273914966, 4663.289149199623, 3675.766727419702, 17013.566734023898, 0.038, 1.012, -0.038, 192.0, 0.0, 0.0, 0.0, 0.0, 0.0, 0.0, 0.0, 0.0, 0.0, 1.694076794874905E9, 0.0, 2023-09-07 16:53:14.874
7.0, 2900.5188227318317, -34043.15966882225, -5335.160235781698, -11185.706995213866, 1002.7439597539855, 4457.586044977432, 3390.267895492065, 17260.307641066032, 0.038, 1.012, -0.038, 192.0, 0.0, 0.0, 0.0, 0.0, 0.0, 0.0, 0.0, 0.0, 0.0, 1.694076794874917E9, 0.0, 2023-09-07 16:53:14.874
8.0, 2694.7933667651855, -34424.45807748533, -5533.129636422353, -11764.483066139588, 847.5334462563331, 4223.540928785912, 3207.229460147555, 17332.57083089004, 0.042, 1.006, -0.03, 192.0, 1.0, 80.0, 31.0, 112.0, 255.0, 16.0, 0.0, 0.0, 0.0, 1.69407679487493E9, 0.0, 2023-09-07 16:53:14.874
9.0, 2892.4945464723764, -34431.700042688855, -5370.721861210091, -12327.434101990952, 1078.717539157574, 4384.674654564221, 3439.128808871366, 17215.514745177596, 0.042, 1.006, -0.03, 192.0, 0.0, 0.0, 0.0, 0.0, 0.0, 0.0, 0.0, 0.0, 0.0, 1.694076794874945E9, 0.0, 2023-09-07 16:53:14.874
10.0, 3166.0798986053346, -33975.52329010049, -5148.657280046616, -11888.244675188622, 1312.8297105824604, 4642.233805922724, 3687.948428147844, 17017.545344536942, 0.042, 1.006, -0.03, 192.0, 0.0, 0.0, 0.0, 0.0, 0.0, 0.0, 0.0, 0.0, 0.0, 1.694076794874958E9, 0.0, 2023-09-07 16:53:14.874
11.0, 2972.156163711091, -33956.27843812447, -5278.386804865218, -11170.59721596208, 1079.008111835493, 4515.365304394401, 3466.5320475735725, 17210.396195697333, 0.042, 1.006, -0.03, 192.0, 0.0, 0.0, 0.0, 0.0, 0.0, 0.0, 0.0, 0.0, 0.0, 1.694076794874971E9, 0.0, 2023-09-07 16:53:14.874
12.0, 2727.315154947657, -34348.506849826204, -5503.290057574518, -11614.279343399923, 857.8823039391403, 4243.054001695395, 3260.068984039901, 17356.91188060187, 0.042, 1.006, -0.03, 192.0, 0.0, 0.0, 0.0, 0.0, 0.0, 0.0, 0.0, 0.0, 0.0, 1.694076794874985E9, 0.0, 2023-09-07 16:53:14.874
13.0, 2861.157400746036, -34435.29867354616, -5390.994893431055, -12256.243795900798, 1039.8702072942506, 4348.800104713453, 3434.256128580109, 17234.40196924233, 0.042, 1.006, -0.03, 192.0, 0.0, 0.0, 0.0, 0.0, 0.0, 0.0, 0.0, 0.0, 0.0, 1.694076794874999E9, 0.0, 2023-09-07 16:53:14.874
14.0, 3162.324805536843, -34028.78749713749, -5147.405582357119, -12010.396958636877, 1324.3185072324882, 4627.34754411549, 3660.835762123557, 17034.487966834065, 0.042, 1.006, -0.03, 192.0, 0.0, 0.0, 0.0, 0.0, 0.0, 0.0, 0.0, 0.0, 0.0, 1.694076794875012E9, 0.0, 2023-09-07 16:53:14.875
15.0, 3024.950984114526, -33906.9034346227, -5241.148798602677, -11200.816774465655, 1137.7037927751294, 4563.242741017669, 3451.466971810695, 17147.00664842208, 0.042, 1.006, -0.03, 192.0, 0.0, 0.0, 0.0, 0.0, 0.0, 0.0, 0.0, 0.0, 0.0, 1.694076794875022E9, 0.0, 2023-09-07 16:53:14.875
16.0, 2709.4784628723223, -34327.78678271613, -5516.991676925621, -11515.730502096476, 844.2477398214031, 4257.537932102434, 3183.871887191759, 17348.507624686674, 0.042, 1.006, -0.03, 192.0, 0.0, 0.0, 0.0, 0.0, 0.0, 0.0, 0.0, 0.0, 0.0, 1.694076794875079E9, 0.0, 2023-09-07 16:53:14.875
17.0, 2794.7727197137738, -34475.75533101027, -5448.170655747731, -12209.394539522475, 979.341683309279, 4300.632095412266, 3343.5303978360175, 17239.632277444874, 0.042, 1.006, -0.03, 192.0, 0.0, 0.0, 0.0, 0.0, 0.0, 0.0, 0.0, 0.0, 0.0, 1.694076794935133E9, 0.0, 2023-09-07 16:53:14.935
18.0, 3115.408493925154, -34120.586111615434, -5188.555143899339, -12145.133274213467, 1284.3759398908544, 4596.390378044889, 3631.7784943316574, 17067.70265909465, 0.04, 1.01, -0.032, 192.0, 1.0, 64.0, 31.0, 144.0, 255.0, 0.0, 0.0, 0.0, 0.0, 1.694076794935169E9, 0.0, 2023-09-07 16:53:14.935
19.0, 3069.520362558408, -33868.74900683749, -5201.943838828068, -11270.733031121854, 1185.8270985874055, 4609.287334595601, 3571.2276186022305, 17115.96007537366, 0.04, 1.01, -0.032, 192.0, 0.0, 0.0, 0.0, 0.0, 0.0, 0.0, 0.0, 0.0, 0.0, 1.694076794935183E9, 0.0, 2023-09-07 16:53:14.935
20.0, 2743.453114444389, -34252.61786611293, -5472.645815926292, -11397.802698350275, 874.60140879171, 4297.324037232881, 3253.430515936675, 17355.123741045445, 0.04, 1.01, -0.032, 192.0, 0.0, 0.0, 0.0, 0.0, 0.0, 0.0, 0.0, 0.0, 0.0, 1.694076794935195E9, 0.0, 2023-09-07 16:53:14.935
21.0, 2777.9865596278382, -34466.74757799478, -5462.520475688038, -12121.753349513216, 951.9831480959831, 4274.927589288663, 3331.393400596786, 17248.729437438185, 0.04, 1.01, -0.032, 192.0, 0.0, 0.0, 0.0, 0.0, 0.0, 0.0, 0.0, 0.0, 0.0, 1.694076794935208E9, 0.0, 2023-09-07 16:53:14.935
22.0, 3089.65928431264, -34191.351734560936, -5203.17318477311, -12247.548967307685, 1267.2545036380893, 4580.945322626272, 3643.468456681783, 17114.596618961885, 0.04, 1.01, -0.032, 192.0, 0.0, 0.0, 0.0, 0.0, 0.0, 0.0, 0.0, 0.0, 0.0, 1.69407679493522E9, 0.0, 2023-09-07 16:53:14.935
23.0, 3104.2102699530446, -33856.991989254, -5180.26264670642, -11383.989320276896, 1217.3207065249333, 4632.264927895657, 3605.604601574493, 17067.009755016537, 0.04, 1.01, -0.032, 192.0, 0.0, 0.0, 0.0, 0.0, 0.0, 0.0, 0.0, 0.0, 0.0, 1.694076794935233E9, 0.0, 2023-09-07 16:53:14.935
24.0, 2766.609521700087, -34203.220510866704, -5452.372783705328, -11315.503575265835, 888.6606560540982, 4320.055761343928, 3279.425594738197, 17333.06256926806, 0.04, 1.01, -0.032, 192.0, 0.0, 0.0, 0.0, 0.0, 0.0, 0.0, 0.0, 0.0, 0.0, 1.694076794935243E9, 0.0, 2023-09-07 16:53:14.935
25.0, 2748.035222057727, -34457.87393544602, -5490.258990557074, -12018.734159318705, 916.4885779009555, 4250.497132599012, 3289.4391762541745, 17274.165722628324, 0.04, 1.01, -0.032, 192.0, 0.0, 0.0, 0.0, 0.0, 0.0, 0.0, 0.0, 0.0, 0.0, 1.694076794935259E9, 0.0, 2023-09-07 16:53:14.935
26.0, 3022.604050946719, -34290.682886920324, -5256.750316232481, -12328.641096191537, 1222.975697872126, 4494.309961117502, 3594.339322369018, 17115.20011606218, 0.04, 1.01, -0.032, 192.0, 0.0, 0.0, 0.0, 0.0, 0.0, 0.0, 0.0, 0.0, 0.0, 1.694076794935271E9, 0.0, 2023-09-07 16:53:14.935
27.0, 3152.4229827431423, -33861.79761431189, -5142.242329387943, -11505.113423480205, 1287.840460281427, 4661.433954409833, 3629.8338925640455, 17048.077827462894, 0.04, 1.018, -0.032, 192.0, 1.0, 64.0, 31.0, 208.0, 255.0, 0.0, 0.0, 0.0, 0.0, 1.694076794935284E9, 0.0, 2023-09-07 16:53:14.935
28.0, 2834.312955655212, -34117.83684704743, -5389.9220096972, -11215.948905461897, 952.8325143852848, 4400.477337894123, 3322.497406303574, 17336.14711000289, 0.04, 1.018, -0.032, 192.0, 0.0, 0.0, 0.0, 0.0, 0.0, 0.0, 0.0, 0.0, 0.0, 1.694076794935296E9, 0.0, 2023-09-07 16:53:14.935
29.0, 2734.8253410846405, -34429.68838568788, -5497.880935416333, -11891.820954301473, 895.8355660242518, 4245.736211030032, 3306.1806328511993, 17315.650560337373, 0.04, 1.018, -0.032, 192.0, 0.0, 0.0, 0.0, 0.0, 0.0, 0.0, 0.0, 0.0, 0.0, 1.694076794935309E9, 0.0, 2023-09-07 16:53:14.935
30.0, 3004.49913793792, -34326.490381537726, -5273.312958873864, -12335.614840461594, 1193.4713951911206, 4478.864905698884, 3579.1624878838647, 17171.459456856188, 0.04, 1.018, -0.032, 192.0, 0.0, 0.0, 0.0, 0.0, 0.0, 0.0, 0.0, 0.0, 0.0, 1.694076794935322E9, 0.0, 2023-09-07 16:53:14.935
31.0, 3177.881619677737, -33874.00166678449, -5130.999401926923, -11639.603869867788, 1313.9249460607705, 4666.284282956634, 3663.6744336693805, 17039.69592329215, 0.04, 1.018, -0.032, 192.0, 0.0, 0.0, 0.0, 0.0, 0.0, 0.0, 0.0, 0.0, 0.0, 1.694076794935335E9, 0.0, 2023-09-07 16:53:14.935
32.0, 2867.259426982335, -34053.53087824951, -5362.094087850343, -11177.235684065305, 985.8460409457733, 4416.928221813228, 3346.8608077598583, 17271.952899927248, 0.04, 1.018, -0.032, 192.0, 0.0, 0.0, 0.0, 0.0, 0.0, 0.0, 0.0, 0.0, 0.0, 1.694076794995356E9, 0.0, 2023-09-07 16:53:14.995
33.0, 2698.570811578132, -34421.842923384065, -5534.850720745411, -11794.926142087716, 839.1738938300483, 4192.248486548482, 3211.498643338519, 17299.445545607276, 0.04, 1.018, -0.032, 192.0, 0.0, 0.0, 0.0, 0.0, 0.0, 0.0, 0.0, 0.0, 0.0, 1.694076794995388E9, 0.0, 2023-09-07 16:53:14.995
34.0, 2943.411820341566, -34396.89837657194, -5328.320601978374, -12359.464151795406, 1122.7728274789845, 4411.697913610687, 3491.6554083413375, 17163.144607918814, 0.04, 1.018, -0.032, 192.0, 0.0, 0.0, 0.0, 0.0, 0.0, 0.0, 0.0, 0.0, 0.0, 1.6940767949954E9, 0.0, 2023-09-07 16:53:14.995
35.0, 3204.7931200019266, -33914.34656552631, -5109.474672016463, -11796.110784543847, 1339.7188591621948, 4681.036434297137, 3683.63454146797, 17014.63961775775, 0.04, 1.018, -0.032, 192.0, 0.0, 0.0, 0.0, 0.0, 0.0, 0.0, 0.0, 0.0, 0.0, 1.694076794995412E9, 0.0, 2023-09-07 16:53:14.995
36.0, 2942.405991841077, -33979.926583758184, -5302.660799343682, -11148.848968607064, 1052.4095359336777, 4491.046606427027, 3409.222174790165, 17223.89664934834, 0.04, 1.018, -0.032, 192.0, 0.0, 0.0, 0.0, 0.0, 0.0, 0.0, 0.0, 0.0, 0.0, 1.694076794995423E9, 0.0, 2023-09-07 16:53:14.995
37.0, 2695.0839394431046, -34391.645716624946, -5535.655383545803, -11673.131486550748, 837.6986786959981, 4223.675039252644, 3214.2926113954322, 17329.799214577582, 0.042, 1.016, -0.032, 192.0, 1.0, 80.0, 31.0, 192.0, 255.0, 0.0, 0.0, 0.0, 0.0, 1.694076794995435E9, 0.0, 2023-09-07 16:53:14.995
38.0, 2867.6841101269856, -34453.87297318852, -5388.871477707801, -12331.166843314988, 1063.2501319945018, 4366.43563108869, 3447.600120019927, 17197.074556001968, 0.042, 1.016, -0.032, 192.0, 0.0, 0.0, 0.0, 0.0, 0.0, 0.0, 0.0, 0.0, 0.0, 1.694076794995456E9, 0.0, 2023-09-07 16:53:14.995
39.0, 3154.077011832835, -34002.99358403606, -5153.842884760247, -11969.31445232802, 1315.422512939276, 4640.937404744316, 3684.372149034995, 17041.774635526497, 0.042, 1.016, -0.032, 192.0, 0.0, 0.0, 0.0, 0.0, 0.0, 0.0, 0.0, 0.0, 0.0, 1.694076794995476E9, 0.0, 2023-09-07 16:53:14.995
40.0, 2971.463259632976, -33932.58558900185, -5285.941694491112, -11172.899445640975, 1087.792347406429, 4520.282688174569, 3463.603969049927, 17178.164980192778, 0.042, 1.016, -0.032, 192.0, 0.0, 0.0, 0.0, 0.0, 0.0, 0.0, 0.0, 0.0, 0.0, 1.694076794995487E9, 0.0, 2023-09-07 16:53:14.995
41.0, 2691.798233008174, -34348.640960292934, -5540.729229537157, -11551.605051947243, 830.121437325649, 4234.448580080102, 3174.081823120335, 17341.332714716522, 0.042, 1.016, -0.032, 192.0, 0.0, 0.0, 0.0, 0.0, 0.0, 0.0, 0.0, 0.0, 0.0, 1.6940767949955E9, 0.0, 2023-09-07 16:53:14.995
42.0, 2806.797958230729, -34487.35588638257, -5456.373745962828, -12284.071717747656, 987.6788839911085, 4305.348313492335, 3351.9570054956685, 17212.720777120685, 0.042, 1.016, -0.032, 192.0, 0.0, 0.0, 0.0, 0.0, 0.0, 0.0, 0.0, 0.0, 0.0, 1.694076794995512E9, 0.0, 2023-09-07 16:53:14.995
43.0, 3139.548377936885, -34081.35880009637, -5177.7145478385155, -12125.664904792895, 1292.5119748725863, 4610.650791007375, 3693.044625883654, 17055.163330455223, 0.042, 1.016, -0.032, 192.0, 0.0, 0.0, 0.0, 0.0, 0.0, 0.0, 0.0, 0.0, 0.0, 1.694076794995524E9, 0.0, 2023-09-07 16:53:14.995
44.0, 3045.6486994801403, -33876.21448948557, -5237.728981701014, -11216.820623495654, 1140.6095195543194, 4575.983235357194, 3560.342319052496, 17140.234069852122, 0.042, 1.016, -0.032, 192.0, 0.0, 0.0, 0.0, 0.0, 0.0, 0.0, 0.0, 0.0, 0.0, 1.694076794995536E9, 0.0, 2023-09-07 16:53:14.995
45.0, 2729.550329393188, -34284.06677056155, -5511.202575111696, -11432.380847022636, 842.1913793315148, 4261.27067342647, 3271.1554492897335, 17366.210206295276, 0.042, 1.016, -0.032, 192.0, 0.0, 0.0, 0.0, 0.0, 0.0, 0.0, 0.0, 0.0, 0.0, 1.694076794995549E9, 0.0, 2023-09-07 16:53:14.995
46.0, 2788.9612661553942, -34472.11199666405, -5466.722603645636, -12182.818315365115, 958.3533952657456, 4288.539801661945, 3357.9249212652353, 17255.770236941604, 0.042, 1.016, -0.032, 192.0, 0.0, 0.0, 0.0, 0.0, 0.0, 0.0, 0.0, 0.0, 0.0, 1.69407679499556E9, 0.0, 2023-09-07 16:53:14.995
47.0, 3133.8933865896925, -34144.94951307172, -5179.837963561769, -12233.243850856286, 1295.1047772294019, 4612.058950908059, 3663.048584824632, 17104.538333956996, 0.04, 1.014, -0.038, 192.0, 1.0, 64.0, 31.0, 176.0, 254.0, 208.0, 0.0, 0.0, 0.0, 1.694076795055646E9, 0.0, 2023-09-07 16:53:15.055
48.0, 3099.114072217235, -33838.35063437827, -5192.176126501099, -11286.111031307106, 1201.7191888951288, 4615.411712576355, 3565.214999343753, 17101.85612462236, 0.04, 1.014, -0.038, 192.0, 0.0, 0.0, 0.0, 0.0, 0.0, 0.0, 0.0, 0.0, 0.0, 1.69407679505572E9, 0.0, 2023-09-07 16:53:15.055
49.0, 2753.869027360562, -34211.11067665943, -5467.191990279197, -11318.342246811659, 882.6480367956206, 4302.554345435422, 3263.0641177969123, 17351.368647976953, 0.04, 1.014, -0.038, 192.0, 0.0, 0.0, 0.0, 0.0, 0.0, 0.0, 0.0, 0.0, 0.0, 1.694076795055734E9, 0.0, 2023-09-07 16:53:15.055
50.0, 2736.032335285227, -34477.54347056669, -5504.720569219658, -12082.727203694249, 905.3127056733019, 4230.067638166862, 3299.2515920700544, 17257.759542198128, 0.04, 1.014, -0.038, 192.0, 0.0, 0.0, 0.0, 0.0, 0.0, 0.0, 0.0, 0.0, 0.0, 1.694076795055747E9, 0.0, 2023-09-07 16:53:15.055
51.0, 3072.426089337598, -34239.944427006776, -5218.372371002719, -12343.661468465503, 1254.4693058096536, 4531.682077846775, 3618.0321714916436, 17110.282732282012, 0.04, 1.014, -0.038, 192.0, 0.0, 0.0, 0.0, 0.0, 0.0, 0.0, 0.0, 0.0, 0.0, 1.694076795055759E9, 0.0, 2023-09-07 16:53:15.055
52.0, 3135.7485813794833, -33822.63735802619, -5160.838980774758, -11407.68216939952, 1243.1816748597234, 4621.446683579288, 3589.7125112667695, 17044.076865205392, 0.04, 1.014, -0.038, 192.0, 0.0, 0.0, 0.0, 0.0, 0.0, 0.0, 0.0, 0.0, 0.0, 1.694076795055773E9, 0.0, 2023-09-07 16:53:15.055
53.0, 2786.212001587391, -34142.759042115096, -5438.604109120859, -11230.388132380025, 896.8413945247406, 4323.497929990045, 3274.7540801470377, 17300.026690963114, 0.04, 1.014, -0.038, 192.0, 0.0, 0.0, 0.0, 0.0, 0.0, 0.0, 0.0, 0.0, 0.0, 1.694076795055786E9, 0.0, 2023-09-07 16:53:15.055
54.0, 2724.342372935101, -34445.84869692906, -5514.600040268903, -11951.1201323414, 880.1669931610816, 4215.382542059725, 3270.8201731229037, 17271.684678993784, 0.04, 1.014, -0.038, 192.0, 0.0, 0.0, 0.0, 0.0, 0.0, 0.0, 0.0, 0.0, 0.0, 1.694076795055799E9, 0.0, 2023-09-07 16:53:15.055
55.0, 3036.1268563421795, -34302.68577369282, -5244.412153293151, -12385.705099785937, 1215.8231396464278, 4503.205955410714, 3617.0933982245206, 17142.357485575376, 0.04, 1.014, -0.038, 192.0, 0.0, 0.0, 0.0, 0.0, 0.0, 0.0, 0.0, 0.0, 0.0, 1.694076795055812E9, 0.0, 2023-09-07 16:53:15.055
56.0, 3172.2489800749995, -33838.08241344481, -5129.926518193069, -11546.262985022424, 1290.2768004270556, 4647.754686803185, 3659.2264365227747, 17038.46657734711, 0.04, 1.014, -0.038, 192.0, 0.0, 0.0, 0.0, 0.0, 0.0, 0.0, 0.0, 0.0, 0.0, 1.694076795055825E9, 0.0, 2023-09-07 16:53:15.055
57.0, 2838.0456969792485, -34076.8437477164, -5389.385567830273, -11158.706087911856, 948.7421451499636, 4386.708663309653, 3325.9172232052356, 17301.077222952514, 0.052000000000000005, 1.022, -0.034, 192.0, 1.0, 160.0, 31.0, 240.0, 254.0, 240.0, 0.0, 0.0, 0.0, 1.694076795055837E9, 0.0, 2023-09-07 16:53:15.055
58.0, 2681.6281892810093, -34444.082909117096, -5551.435715131249, -11841.596584510396, 829.0709053362496, 4193.254315048971, 3204.1449194127226, 17300.1831531743, 0.052000000000000005, 1.022, -0.034, 192.0, 0.0, 0.0, 0.0, 0.0, 0.0, 0.0, 0.0, 0.0, 0.0, 1.69407679505585E9, 0.0, 2023-09-07 16:53:15.055
59.0, 2977.6770445915517, -34372.534975115654, -5296.223496940554, -12416.88578330109, 1165.0623279884253, 4468.1137166158815, 3533.2967082615746, 17174.34283189092, 0.052000000000000005, 1.022, -0.034, 192.0, 0.0, 0.0, 0.0, 0.0, 0.0, 0.0, 0.0, 0.0, 0.0, 1.694076795055862E9, 0.0, 2023-09-07 16:53:15.055
60.0, 3195.2489251195107, -33871.028884771935, -5115.509643019395, -11710.660065491207, 1319.8258065969715, 4685.484431443743, 3687.0543583696317, 17058.13611246778, 0.052000000000000005, 1.022, -0.034, 192.0, 0.0, 0.0, 0.0, 0.0, 0.0, 0.0, 0.0, 0.0, 0.0, 1.694076795055875E9, 0.0, 2023-09-07 16:53:15.055
61.0, 2900.8764506431166, -33999.529063645496, -5346.112590564799, -11116.215421702316, 995.9490294395721, 4443.973832604151, 3367.5585231254727, 17260.553510255042, 0.052000000000000005, 1.022, -0.034, 192.0, 0.0, 0.0, 0.0, 0.0, 0.0, 0.0, 0.0, 0.0, 0.0, 1.694076795055887E9, 0.0, 2023-09-07 16:53:15.055
62.0, 2695.8438987545846, -34394.97612654878, -5541.71270629319, -11703.373396798777, 823.6617831780652, 4206.397140788691, 3191.8961634512143, 17336.124758258433, 0.052000000000000005, 1.022, -0.034, 192.0, 0.0, 0.0, 0.0, 0.0, 0.0, 0.0, 0.0, 0.0, 0.0, 1.694076795115966E9, 0.0, 2023-09-07 16:53:15.115
63.0, 2942.0036604408815, -34407.11312378802, -5331.651011902215, -12383.715794529415, 1109.0041528945153, 4417.710532869164, 3511.6602196288372, 17216.632332400364, 0.052000000000000005, 1.022, -0.034, 192.0, 0.0, 0.0, 0.0, 0.0, 0.0, 0.0, 0.0, 0.0, 0.0, 1.694076795116029E9, 0.0, 2023-09-07 16:53:15.116
64.0, 3208.3917508592313, -33927.13176335475, -5107.306552804298, -11888.177619955257, 1342.423420241287, 4665.5690271340645, 3732.78602752519, 17075.592824887375, 0.052000000000000005, 1.022, -0.034, 192.0, 0.0, 0.0, 0.0, 0.0, 0.0, 0.0, 0.0, 0.0, 0.0, 1.694076795116114E9, 0.0, 2023-09-07 16:53:15.116
65.0, 2943.0094889413704, -33946.868353708785, -5307.846404057313, -11120.641067104467, 1056.2763877244458, 4479.870734199373, 3431.6856779677487, 17213.279570732066, 0.052000000000000005, 1.022, -0.034, 192.0, 0.0, 0.0, 0.0, 0.0, 0.0, 0.0, 0.0, 0.0, 0.0, 1.694076795116127E9, 0.0, 2023-09-07 16:53:15.116
66.0, 2677.3143026011353, -34360.68855055435, -5551.256901175607, -11595.190953635092, 817.4703499639452, 4206.441844277602, 3184.5424395254186, 17345.467787440753, 0.052000000000000005, 1.022, -0.034, 192.0, 0.0, 0.0, 0.0, 0.0, 0.0, 0.0, 0.0, 0.0, 0.0, 1.694076795116139E9, 0.0, 2023-09-07 16:53:15.116
67.0, 2877.027139309304, -34438.137345091985, -5385.652826506237, -12341.448645764429, 1063.205428505591, 4355.930311194696, 3428.8917099108353, 17225.908306349316, 0.046, 1.016, -0.042, 192.0, 1.0, 112.0, 31.0, 192.0, 254.0, 176.0, 0.0, 0.0, 0.0, 1.694076795116152E9, 0.0, 2023-09-07 16:53:15.116
68.0, 3183.6707214916614, -34011.822523095914, -5126.283183846854, -12078.033337358635, 1333.3039085035216, 4649.788695548617, 3690.630637482481, 17079.482028422597, 0.046, 1.016, -0.042, 192.0, 0.0, 0.0, 0.0, 0.0, 0.0, 0.0, 0.0, 0.0, 0.0, 1.694076795116165E9, 0.0, 2023-09-07 16:53:15.116
69.0, 2999.246477990923, -33888.68676289162, -5266.160400648165, -11164.584596703602, 1092.9108968866942, 4521.13205446387, 3441.5651490169944, 17154.91916595926, 0.046, 1.016, -0.042, 192.0, 0.0, 0.0, 0.0, 0.0, 0.0, 0.0, 0.0, 0.0, 0.0, 1.694076795116176E9, 0.0, 2023-09-07 16:53:15.116
70.0, 2688.065491684138, -34324.7022419813, -5539.119903936375, -11484.41570811459, 802.2041085009705, 4203.02202737594, 3182.8660586912706, 17332.682589612315, 0.046, 1.016, -0.042, 192.0, 0.0, 0.0, 0.0, 0.0, 0.0, 0.0, 0.0, 0.0, 0.0, 1.694076795116185E9, 0.0, 2023-09-07 16:53:15.116
71.0, 2808.3625803426007, -34492.00504922927, -5446.449571424672, -12276.71799382186, 976.4806600189996, 4269.496115386023, 3376.4321656742295, 17212.944294565237, 0.046, 1.016, -0.042, 192.0, 0.0, 0.0, 0.0, 0.0, 0.0, 0.0, 0.0, 0.0, 0.0, 1.694076795116195E9, 0.0, 2023-09-07 16:53:15.116
72.0, 3179.8932766787148, -34100.46954160566, -5129.077151903767, -12234.763769479248, 1332.7227631476835, 4604.258192093157, 3686.182640335875, 17079.169104000226, 0.046, 1.016, -0.042, 192.0, 0.0, 0.0, 0.0, 0.0, 0.0, 0.0, 0.0, 0.0, 0.0, 1.694076795116204E9, 0.0, 2023-09-07 16:53:15.116
73.0, 3094.889592515182, -33821.60917778125, -5190.209172989032, -11212.12675716004, 1178.003988028048, 4565.142639296369, 3509.9838387946893, 17112.92023812774, 0.046, 1.016, -0.042, 192.0, 0.0, 0.0, 0.0, 0.0, 0.0, 0.0, 0.0, 0.0, 0.0, 1.694076795116216E9, 0.0, 2023-09-07 16:53:15.116
74.0, 2746.9399865794167, -34240.2349996847, -5482.793507909001, -11349.366468115624, 851.4002980471013, 4252.419382622169, 3224.5744138448736, 17345.601897907483, 0.046, 1.016, -0.042, 192.0, 0.0, 0.0, 0.0, 0.0, 0.0, 0.0, 0.0, 0.0, 0.0, 1.694076795116227E9, 0.0, 2023-09-07 16:53:15.116
75.0, 2768.1294403230477, -34489.5910608281, -5488.470851000649, -12156.085628996567, 920.4001331806343, 4225.954917187085, 3308.460510785641, 17241.107492578925, 0.046, 1.016, -0.042, 192.0, 0.0, 0.0, 0.0, 0.0, 0.0, 0.0, 0.0, 0.0, 0.0, 1.694076795116237E9, 0.0, 2023-09-07 16:53:15.116
76.0, 3141.470627960042, -34190.27885082708, -5167.320986666798, -12351.39517204704, 1286.2087829361897, 4570.149430054358, 3688.01548338121, 17114.507211984066, 0.046, 1.016, -0.042, 192.0, 0.0, 0.0, 0.0, 0.0, 0.0, 0.0, 0.0, 0.0, 0.0, 1.69407679511625E9, 0.0, 2023-09-07 16:53:15.116
77.0, 3135.279194745922, -33815.305985844854, -5171.433707646574, -11329.406360317036, 1212.71624716714, 4590.444814019777, 3603.8164620180683, 17084.466467436134, 0.056, 1.03, -0.04, 192.0, 1.0, 192.0, 32.0, 48.0, 254.0, 192.0, 0.0, 0.0, 0.0, 1.694076795175407E9, 0.0, 2023-09-07 16:53:15.175
78.0, 2778.344187539123, -34184.62385947989, -5461.402888465273, -11261.993499039829, 877.5071355709, 4267.037423495939, 3257.029146793979, 17313.884772525405, 0.056, 1.03, -0.04, 192.0, 0.0, 0.0, 0.0, 0.0, 0.0, 0.0, 0.0, 0.0, 0.0, 1.694076795175452E9, 0.0, 2023-09-07 16:53:15.175
79.0, 2749.510437191777, -34467.03815067269, -5511.314333833973, -12021.796348309083, 890.9628857329948, 4198.126995340228, 3278.8891528712697, 17256.731361953185, 0.056, 1.03, -0.04, 192.0, 0.0, 0.0, 0.0, 0.0, 0.0, 0.0, 0.0, 0.0, 0.0, 1.694076795175467E9, 0.0, 2023-09-07 16:53:15.175
80.0, 3120.1917672385894, -34264.91132556335, -5192.8019753458475, -12411.655475098549, 1274.9658554751702, 4549.630528644387, 3653.9290730868665, 17143.810348964973, 0.056, 1.03, -0.04, 192.0, 0.0, 0.0, 0.0, 0.0, 0.0, 0.0, 0.0, 0.0, 0.0, 1.694076795175604E9, 0.0, 2023-09-07 16:53:15.175
81.0, 3200.3451228553204, -33806.92408167411, -5127.624288514172, -11453.637355999632, 1270.0484716950027, 4654.549617117598, 3641.1662270028864, 17077.313909210436, 0.056, 1.03, -0.04, 192.0, 0.0, 0.0, 0.0, 0.0, 0.0, 0.0, 0.0, 0.0, 0.0, 1.694076795175617E9, 0.0, 2023-09-07 16:53:15.175
82.0, 2835.2293771778795, -34108.918501009764, -5423.628440335803, -11167.602082205067, 919.8636913137069, 4329.331735292881, 3294.267153056521, 17308.341539900488, 0.056, 1.03, -0.04, 192.0, 0.0, 0.0, 0.0, 0.0, 0.0, 0.0, 0.0, 0.0, 0.0, 1.694076795175631E9, 0.0, 2023-09-07 16:53:15.175
83.0, 2728.9468322928947, -34444.976978895305, -5540.930395237255, -11888.714061822184, 863.5149435418778, 4175.775250884921, 3229.2459284360325, 17289.342557113476, 0.056, 1.03, -0.04, 192.0, 0.0, 0.0, 0.0, 0.0, 0.0, 0.0, 0.0, 0.0, 0.0, 1.694076795175646E9, 0.0, 2023-09-07 16:53:15.175
84.0, 3051.7283739719837, -34349.065643437585, -5255.342156331797, -12452.849740129679, 1214.102055323369, 4492.521821561078, 3595.4569095917836, 17171.97354697866, 0.056, 1.03, -0.04, 192.0, 0.0, 0.0, 0.0, 0.0, 0.0, 0.0, 0.0, 0.0, 0.0, 1.694076795175661E9, 0.0, 2023-09-07 16:53:15.175
85.0, 3235.2138442055993, -33841.70339604657, -5118.571832009773, -11641.503768146487, 1305.4759866566642, 4669.815858580573, 3666.6472156819364, 17071.927138796706, 0.056, 1.03, -0.04, 192.0, 0.0, 0.0, 0.0, 0.0, 0.0, 0.0, 0.0, 0.0, 0.0, 1.694076795175678E9, 0.0, 2023-09-07 16:53:15.175
86.0, 2903.2904390442895, -34024.85359011336, -5374.186381600664, -11116.461290891326, 968.4787355039997, 4398.040997748494, 3368.3408341814084, 17270.79060921557, 0.056, 1.03, -0.04, 192.0, 0.0, 0.0, 0.0, 0.0, 0.0, 0.0, 0.0, 0.0, 0.0, 1.694076795175687E9, 0.0, 2023-09-07 16:53:15.175
87.0, 2697.2073551663584, -34419.09365881606, -5558.185941956752, -11756.034106735482, 808.9990388153839, 4186.526439967924, 3252.0894112693563, 17322.95958077426, 0.054, 1.02, -0.046, 192.0, 1.0, 176.0, 31.0, 224.0, 254.0, 144.0, 0.0, 0.0, 0.0, 1.694076795175696E9, 0.0, 2023-09-07 16:53:15.175
88.0, 2978.5264108808533, -34422.535827462176, -5323.604383898304, -12445.518367948338, 1135.043935184948, 4425.243070750603, 3555.961377139256, 17195.55463737901, 0.054, 1.02, -0.046, 192.0, 0.0, 0.0, 0.0, 0.0, 0.0, 0.0, 0.0, 0.0, 0.0, 1.694076795175708E9, 0.0, 2023-09-07 16:53:15.175
89.0, 3240.0194692634905, -33909.2056643016, -5109.228802827454, -11838.959078664671, 1334.1532747928234, 4669.25706496919, 3716.268088372718, 17065.62394686031, 0.054, 1.02, -0.046, 192.0, 0.0, 0.0, 0.0, 0.0, 0.0, 0.0, 0.0, 0.0, 0.0, 1.694076795175723E9, 0.0, 2023-09-07 16:53:15.175
90.0, 2953.8053815132835, -33956.25608638002, -5326.800683355414, -11102.692616306857, 1017.2055384165691, 4461.497600257111, 3393.710064138182, 17224.25427725962, 0.054, 1.02, -0.046, 192.0, 0.0, 0.0, 0.0, 0.0, 0.0, 0.0, 0.0, 0.0, 0.0, 1.694076795175737E9, 0.0, 2023-09-07 16:53:15.175
91.0, 2718.352105421079, -34370.74683555923, -5542.42796211576, -11625.857547027774, 811.6588964055653, 4199.959838385563, 3196.3888640867312, 17337.71173211476, 0.054, 1.02, -0.046, 192.0, 0.0, 0.0, 0.0, 0.0, 0.0, 0.0, 0.0, 0.0, 0.0, 1.694076795175751E9, 0.0, 2023-09-07 16:53:15.175
92.0, 2930.8054364687728, -34447.145098107474, -5361.602349472327, -12382.464096839918, 1079.209277535591, 4373.431727103201, 3493.063568242022, 17220.58859116895, 0.054, 1.02, -0.046, 192.0, 0.0, 0.0, 0.0, 0.0, 0.0, 0.0, 0.0, 0.0, 0.0, 1.694076795235181E9, 0.0, 2023-09-07 16:53:15.235
93.0, 3227.9048237687143, -33974.36099938882, -5106.300724303809, -12022.936287276303, 1339.7635626511053, 4655.175465962347, 3726.4381320998828, 17086.075793036915, 0.054, 1.02, -0.046, 192.0, 0.0, 0.0, 0.0, 0.0, 0.0, 0.0, 0.0, 0.0, 0.0, 1.694076795235211E9, 0.0, 2023-09-07 16:53:15.235
94.0, 3004.275620493367, -33885.490463434515, -5275.9951682085, -11121.19986071585, 1075.0518530669037, 4491.851269227418, 3462.866361482902, 17179.662547071286, 0.054, 1.02, -0.046, 192.0, 0.0, 0.0, 0.0, 0.0, 0.0, 0.0, 0.0, 0.0, 0.0, 1.69407679523522E9, 0.0, 2023-09-07 16:53:15.235
95.0, 2709.7243320613306, -34322.31060532458, -5539.924566736766, -11502.677083334576, 805.1768905135264, 4209.124053612239, 3219.522919597974, 17345.981877563223, 0.054, 1.02, -0.046, 192.0, 0.0, 0.0, 0.0, 0.0, 0.0, 0.0, 0.0, 0.0, 0.0, 1.694076795235271E9, 0.0, 2023-09-07 16:53:15.235
96.0, 2868.153496760547, -34460.39968256947, -5417.660524566237, -12290.151392239499, 1010.7682360134406, 4321.106293333327, 3436.0442681365334, 17232.94910585274, 0.054, 1.02, -0.046, 192.0, 0.0, 0.0, 0.0, 0.0, 0.0, 0.0, 0.0, 0.0, 0.0, 1.694076795235281E9, 0.0, 2023-09-07 16:53:15.235
97.0, 3220.0146579759908, -34047.764128180046, -5108.1559190936, -12177.65506239594, 1354.6945279472504, 4649.073439726048, 3757.1270772370194, 17102.034938578003, 0.036000000000000004, 1.01, -0.05, 192.0, 1.0, 32.0, 31.0, 144.0, 254.0, 112.0, 0.0, 0.0, 0.0, 1.694076795235291E9, 0.0, 2023-09-07 16:53:15.235
98.0, 3071.397909092654, -33831.51100057495, -5225.010839105945, -11175.715765442344, 1145.303385889934, 4561.789877628074, 3543.4667519887394, 17133.3944360488, 0.036000000000000004, 1.01, -0.05, 192.0, 0.0, 0.0, 0.0, 0.0, 0.0, 0.0, 0.0, 0.0, 0.0, 1.694076795235302E9, 0.0, 2023-09-07 16:53:15.235
99.0, 2737.373439952545, -34256.082386503505, -5506.218136098163, -11379.004881263361, 837.5198647403556, 4239.634184793733, 3244.8697978102923, 17342.47265368374, 0.036000000000000004, 1.01, -0.05, 192.0, 0.0, 0.0, 0.0, 0.0, 0.0, 0.0, 0.0, 0.0, 0.0, 1.694076795235313E9, 0.0, 2023-09-07 16:53:15.235
100.0, 2828.3226881411897, -34452.84479294357, -5452.55159766097, -12172.111829771022, 958.2416365434691, 4271.9995107650175, 3369.1678487262548, 17253.84798691845, 0.036000000000000004, 1.01, -0.05, 192.0, 0.0, 0.0, 0.0, 0.0, 0.0, 0.0, 0.0, 0.0, 0.0, 1.694076795235324E9, 0.0, 2023-09-07 16:53:15.235
101.0, 3193.7960617299154, -34141.12736476986, -5139.023678186379, -12313.710130895393, 1317.322411217977, 4610.047293907081, 3708.78025398019, 17129.57228774694, 0.036000000000000004, 1.01, -0.05, 192.0, 0.0, 0.0, 0.0, 0.0, 0.0, 0.0, 0.0, 0.0, 0.0, 1.694076795235335E9, 0.0, 2023-09-07 16:53:15.235
102.0, 3127.813712097849, -33811.17091312062, -5185.291789208864, -11286.535714451757, 1197.1370812817909, 4597.932648412305, 3595.702778780792, 17104.359520001355, 0.036000000000000004, 1.01, -0.05, 192.0, 0.0, 0.0, 0.0, 0.0, 0.0, 0.0, 0.0, 0.0, 0.0, 1.694076795235345E9, 0.0, 2023-09-07 16:53:15.235
103.0, 2757.199437284403, -34215.58102555049, -5487.286208544518, -11295.878743634075, 845.7453066999086, 4266.0092432509955, 3267.802687621437, 17328.14518548789, 0.036000000000000004, 1.01, -0.05, 192.0, 0.0, 0.0, 0.0, 0.0, 0.0, 0.0, 0.0, 0.0, 0.0, 1.694076795235357E9, 0.0, 2023-09-07 16:53:15.235
104.0, 2740.994422554305, -34494.48609286381, -5524.255993873596, -12083.91184615038, 871.4051093346011, 4194.193088316094, 3305.0630456284343, 17250.718742694706, 0.036000000000000004, 1.01, -0.05, 192.0, 0.0, 0.0, 0.0, 0.0, 0.0, 0.0, 0.0, 0.0, 0.0, 1.694076795235367E9, 0.0, 2023-09-07 16:53:15.235
105.0, 3092.207383180545, -34286.1901862848, -5218.350019258263, -12449.18405403901, 1246.2215121056454, 4527.725819078186, 3657.9970905777327, 17122.598543476885, 0.036000000000000004, 1.01, -0.05, 192.0, 0.0, 0.0, 0.0, 0.0, 0.0, 0.0, 0.0, 0.0, 0.0, 1.694076795235378E9, 0.0, 2023-09-07 16:53:15.235
106.0, 3164.5376282379184, -33827.15241040616, -5155.8768935056805, -11452.810341454786, 1241.3488318143884, 4621.759608001663, 3636.9193955563783, 17058.60549910134, 0.036000000000000004, 1.01, -0.05, 192.0, 0.0, 0.0, 0.0, 0.0, 0.0, 0.0, 0.0, 0.0, 0.0, 1.694076795235389E9, 0.0, 2023-09-07 16:53:15.235
107.0, 2821.4607025934106, -34128.31981519697, -5427.115312470832, -11203.968370433853, 896.215545679992, 4322.447398000646, 3302.1796705936995, 17309.66029282335, 0.05, 1.018, -0.05, 192.0, 1.0, 144.0, 31.0, 208.0, 254.0, 112.0, 0.0, 0.0, 0.0, 1.694076795295536E9, 0.0, 2023-09-07 16:53:15.295
108.0, 2710.663105328453, -34481.477377590825, -5550.631052330858, -11952.863568408915, 839.6879839525204, 4184.559486455856, 3237.6054808623176, 17287.688528023784, 0.05, 1.018, -0.05, 192.0, 0.0, 0.0, 0.0, 0.0, 0.0, 0.0, 0.0, 0.0, 0.0, 1.694076795295565E9, 0.0, 2023-09-07 16:53:15.295
109.0, 3030.494216739442, -34375.95479201732, -5272.776517006936, -12498.983740685433, 1192.979656813104, 4480.451879555211, 3579.1624878838647, 17151.901680457795, 0.05, 1.018, -0.05, 192.0, 0.0, 0.0, 0.0, 0.0, 0.0, 0.0, 0.0, 0.0, 0.0, 1.694076795295574E9, 0.0, 2023-09-07 16:53:15.295
110.0, 3184.363625569776, -33865.99974226949, -5146.802085256825, -11633.367733164756, 1267.9474077162038, 4645.385401890922, 3652.5209131861825, 17070.09429575137, 0.05, 1.018, -0.05, 192.0, 0.0, 0.0, 0.0, 0.0, 0.0, 0.0, 0.0, 0.0, 0.0, 1.694076795295583E9, 0.0, 2023-09-07 16:53:15.295
111.0, 2856.731755343885, -34071.90401219178, -5399.712073768625, -11150.212425018839, 927.1280082616817, 4389.3908726442905, 3375.649854618294, 17302.060699708545, 0.05, 1.018, -0.05, 192.0, 0.0, 0.0, 0.0, 0.0, 0.0, 0.0, 0.0, 0.0, 0.0, 1.694076795295625E9, 0.0, 2023-09-07 16:53:15.295
112.0, 2692.2452678972804, -34456.644589500975, -5555.727250066669, -11818.015494110048, 821.895995366096, 4186.906419623664, 3268.003853321535, 17330.268601211144, 0.05, 1.018, -0.05, 192.0, 0.0, 0.0, 0.0, 0.0, 0.0, 0.0, 0.0, 0.0, 0.0, 1.694076795295634E9, 0.0, 2023-09-07 16:53:15.295
113.0, 2991.959809298493, -34423.452248984846, -5292.535459105427, -12471.938129894512, 1170.2479327020565, 4452.065164096972, 3605.0681597075654, 17212.251390487123, 0.05, 1.018, -0.05, 192.0, 0.0, 0.0, 0.0, 0.0, 0.0, 0.0, 0.0, 0.0, 0.0, 1.694076795295643E9, 0.0, 2023-09-07 16:53:15.295
114.0, 3235.2808994389657, -33892.218338515566, -5097.851764899703, -11795.104956043358, 1338.1765887947786, 4686.602018666508, 3739.245681672774, 17092.647205906775, 0.05, 1.018, -0.05, 192.0, 0.0, 0.0, 0.0, 0.0, 0.0, 0.0, 0.0, 0.0, 0.0, 1.694076795295652E9, 0.0, 2023-09-07 16:53:15.295
115.0, 2937.4886080609094, -33977.73611280157, -5335.33904973734, -11104.994845985753, 1008.9353929681055, 4456.69197519922, 3406.1152823108773, 17258.944184654258, 0.05, 1.018, -0.05, 192.0, 0.0, 0.0, 0.0, 0.0, 0.0, 0.0, 0.0, 0.0, 0.0, 1.69407679529566E9, 0.0, 2023-09-07 16:53:15.295
116.0, 2678.1413171459817, -34420.993557094764, -5575.843820076445, -11687.190733813135, 785.7979280707751, 4179.820916631332, 3202.1779659006556, 17343.590240906506, 0.036000000000000004, 0.994, -0.066, 192.0, 1.0, 32.0, 31.0, 16.0, 253.0, 240.0, 0.0, 0.0, 0.0, 1.694076795295669E9, 0.0, 2023-09-07 16:53:15.295
117.0, 2906.2408693123903, -34486.372409626536, -5381.473050293094, -12443.819635369735, 1074.113079799781, 4357.472581562112, 3498.964428778223, 17207.334006706955, 0.036000000000000004, 0.994, -0.066, 192.0, 0.0, 0.0, 0.0, 0.0, 0.0, 0.0, 0.0, 0.0, 0.0, 1.694076795295678E9, 0.0, 2023-09-07 16:53:15.295
118.0, 3220.3722858872757, -33981.6700198257, -5117.521300020373, -12002.70795854425, 1339.36123125091, 4671.201666736802, 3752.6120248570473, 17073.24589171957, 0.036000000000000004, 0.994, -0.066, 192.0, 0.0, 0.0, 0.0, 0.0, 0.0, 0.0, 0.0, 0.0, 0.0, 1.694076795295687E9, 0.0, 2023-09-07 16:53:15.295
119.0, 2995.7372541114396, -33914.72654518206, -5291.104947460288, -11117.44476764736, 1065.1276785287475, 4510.336161891957, 3477.2385331676646, 17188.446782642222, 0.036000000000000004, 0.994, -0.066, 192.0, 0.0, 0.0, 0.0, 0.0, 0.0, 0.0, 0.0, 0.0, 0.0, 1.694076795295696E9, 0.0, 2023-09-07 16:53:15.295
120.0, 2715.804006553174, -34346.338730614036, -5537.957613224699, -11533.678952894086, 816.5762801857329, 4223.429170063636, 3231.5258063704737, 17345.467787440753, 0.036000000000000004, 0.994, -0.066, 192.0, 0.0, 0.0, 0.0, 0.0, 0.0, 0.0, 0.0, 0.0, 0.0, 1.694076795295704E9, 0.0, 2023-09-07 16:53:15.295
121.0, 2877.47417419841, -34478.392836855994, -5404.696512782159, -12326.987067101845, 1033.4105531466666, 4345.469694789612, 3451.154047388321, 17235.497204720643, 0.036000000000000004, 0.994, -0.066, 192.0, 0.0, 0.0, 0.0, 0.0, 0.0, 0.0, 0.0, 0.0, 0.0, 1.694076795295713E9, 0.0, 2023-09-07 16:53:15.295
122.0, 3228.5977278468285, -34039.94101762069, -5104.378474280653, -12143.613355590505, 1354.3145482915102, 4681.796393608617, 3752.723783579324, 17117.81527016345, 0.036000000000000004, 0.994, -0.066, 192.0, 0.0, 0.0, 0.0, 0.0, 0.0, 0.0, 0.0, 0.0, 0.0, 1.694076795355746E9, 0.0, 2023-09-07 16:53:15.355
123.0, 3064.044185166858, -33851.29229441789, -5230.330554286308, -11149.29600349617, 1132.8087607394173, 4571.982273099694, 3510.0285422836, 17168.665488799274, 0.036000000000000004, 0.994, -0.066, 192.0, 0.0, 0.0, 0.0, 0.0, 0.0, 0.0, 0.0, 0.0, 0.0, 1.694076795355784E9, 0.0, 2023-09-07 16:53:15.355
124.0, 2734.4677131733556, -34293.767427655155, -5510.755540222591, -11412.711311901965, 828.6462221915988, 4253.961652989585, 3235.25854769451, 17358.990592836213, 0.036000000000000004, 0.994, -0.066, 192.0, 0.0, 0.0, 0.0, 0.0, 0.0, 0.0, 0.0, 0.0, 0.0, 1.694076795355792E9, 0.0, 2023-09-07 16:53:15.355
125.0, 2831.2284149203797, -34486.35005788208, -5438.961737032144, -12209.975684878313, 979.207572842547, 4300.676798901177, 3392.3913112153186, 17257.737190453674, 0.036000000000000004, 0.994, -0.066, 192.0, 0.0, 0.0, 0.0, 0.0, 0.0, 0.0, 0.0, 0.0, 0.0, 1.694076795355799E9, 0.0, 2023-09-07 16:53:15.355
126.0, 3198.333465854343, -34128.923312297266, -5119.264736087887, -12284.228179958842, 1341.7528679076277, 4642.859654767472, 3710.1660621364194, 17126.82302317894, 0.034, 1.01, -0.07, 192.0, 1.0, 16.0, 31.0, 144.0, 253.0, 208.0, 0.0, 0.0, 0.0, 1.694076795355807E9, 0.0, 2023-09-07 16:53:15.355
127.0, 3117.5766131373184, -33813.85312245526, -5185.180030486587, -11244.715600575877, 1184.8883253202828, 4615.2105468762575, 3554.8214381720354, 17130.39930229179, 0.034, 1.01, -0.07, 192.0, 0.0, 0.0, 0.0, 0.0, 0.0, 0.0, 0.0, 0.0, 0.0, 1.694076795355885E9, 0.0, 2023-09-07 16:53:15.355
128.0, 2773.5609142256876, -34212.20591213774, -5470.567103691948, -11290.7154906649, 849.8356759352298, 4287.958656306107, 3241.494684397541, 17347.1441682749, 0.034, 1.01, -0.07, 192.0, 0.0, 0.0, 0.0, 0.0, 0.0, 0.0, 0.0, 0.0, 0.0, 1.694076795355892E9, 0.0, 2023-09-07 16:53:15.355
129.0, 2779.7523474398076, -34473.72132226483, -5481.340644519406, -12076.692232691317, 909.4477783975337, 4251.3912023772245, 3307.9911241520795, 17292.1812286593, 0.034, 1.01, -0.07, 192.0, 0.0, 0.0, 0.0, 0.0, 0.0, 0.0, 0.0, 0.0, 0.0, 1.694076795355899E9, 0.0, 2023-09-07 16:53:15.355
130.0, 3132.887558089204, -34238.335101405995, -5171.389004157663, -12395.31634990172, 1294.389521406832, 4588.008473874149, 3692.9775706502883, 17166.609128309385, 0.034, 1.01, -0.07, 192.0, 0.0, 0.0, 0.0, 0.0, 0.0, 0.0, 0.0, 0.0, 0.0, 1.694076795355906E9, 0.0, 2023-09-07 16:53:15.355
131.0, 3168.4491835175972, -33805.00183165095, -5138.1519601526215, -11378.714308585442, 1254.066974409458, 4649.63223333743, 3646.374183460973, 17101.900828111273, 0.034, 1.01, -0.07, 192.0, 0.0, 0.0, 0.0, 0.0, 0.0, 0.0, 0.0, 0.0, 0.0, 1.694076795355913E9, 0.0, 2023-09-07 16:53:15.355
132.0, 2795.3315133251567, -34155.834812621455, -5437.978260276111, -11209.064568169662, 890.3593886327016, 4323.363819523313, 3280.3867197497752, 17334.828357080027, 0.034, 1.01, -0.07, 192.0, 0.0, 0.0, 0.0, 0.0, 0.0, 0.0, 0.0, 0.0, 0.0, 1.69407679535592E9, 0.0, 2023-09-07 16:53:15.355
133.0, 2719.9167275329505, -34478.10226417807, -5527.653459030803, -11966.386373804376, 857.5470277723108, 4195.489489494502, 3218.1594631862004, 17295.131658927403, 0.034, 1.01, -0.07, 192.0, 0.0, 0.0, 0.0, 0.0, 0.0, 0.0, 0.0, 0.0, 0.0, 1.694076795355927E9, 0.0, 2023-09-07 16:53:15.355
134.0, 3068.201609635545, -34322.04238439112, -5225.860205395246, -12455.375487253128, 1234.8668259223493, 4527.412894655811, 3538.370554252929, 17159.68008752824, 0.034, 1.01, -0.07, 192.0, 0.0, 0.0, 0.0, 0.0, 0.0, 0.0, 0.0, 0.0, 0.0, 1.694076795355934E9, 0.0, 2023-09-07 16:53:15.355
135.0, 3210.224593904566, -33807.59463400777, -5100.399863767608, -11537.23288026248, 1302.5702598774744, 4686.602018666508, 3643.826084593068, 17090.881418094807, 0.034, 1.01, -0.07, 192.0, 0.0, 0.0, 0.0, 0.0, 0.0, 0.0, 0.0, 0.0, 0.0, 1.694076795355941E9, 0.0, 2023-09-07 16:53:15.355
136.0, 2850.7861913187735, -34065.8913929333, -5380.199000859142, -11133.225099232806, 936.6945548885531, 4388.675616821721, 3380.5001831650957, 17313.013054491646, 0.024, 1.018, -0.074, 192.0, 0.0, 192.0, 31.0, 208.0, 253.0, 176.0, 0.0, 0.0, 0.0, 1.694076795355949E9, 0.0, 2023-09-07 16:53:15.355
137.0, 2699.777805778719, -34443.52411550571, -5532.481435833149, -11830.107787860368, 836.1340565841266, 4197.367036028747, 3225.468483623086, 17324.211278463757, 0.024, 1.018, -0.074, 192.0, 0.0, 0.0, 0.0, 0.0, 0.0, 0.0, 0.0, 0.0, 0.0, 1.694076795416006E9, 0.0, 2023-09-07 16:53:15.416
138.0, 2989.3223034527664, -34404.654431897936, -5283.751223534492, -12476.22966482993, 1176.9534560386487, 4449.315899528969, 3507.860423071435, 17196.292244946035, 0.024, 1.018, -0.074, 192.0, 0.0, 0.0, 0.0, 0.0, 0.0, 0.0, 0.0, 0.0, 0.0, 1.694076795416062E9, 0.0, 2023-09-07 16:53:15.416
139.0, 3200.30041936641, -33884.52933842294, -5112.7380267069375, -11755.832941035384, 1312.3156204599882, 4666.284282956634, 3657.0359655661546, 17069.04376376197, 0.024, 1.018, -0.074, 192.0, 0.0, 0.0, 0.0, 0.0, 0.0, 0.0, 0.0, 0.0, 0.0, 1.694076795416074E9, 0.0, 2023-09-07 16:53:15.416
140.0, 2893.343912761678, -33997.58446187788, -5350.560587711405, -11112.214459444816, 973.9996163844605, 4420.079817781427, 3362.1494009672883, 17235.072521575992, 0.024, 1.018, -0.074, 192.0, 0.0, 0.0, 0.0, 0.0, 0.0, 0.0, 0.0, 0.0, 0.0, 1.694076795416085E9, 0.0, 2023-09-07 16:53:15.416
141.0, 2668.19479086337, -34412.76811513521, -5558.05183149002, -11707.195545100636, 805.959201569462, 4171.751936882965, 3185.1906401146225, 17298.149144428866, 0.024, 1.018, -0.074, 192.0, 0.0, 0.0, 0.0, 0.0, 0.0, 0.0, 0.0, 0.0, 0.0, 1.694076795416095E9, 0.0, 2023-09-07 16:53:15.416
142.0, 2901.4575959989543, -34463.081891904105, -5355.947358125134, -12448.960536594455, 1088.5746584623646, 4377.611503316343, 3488.995550751156, 17174.611052824384, 0.024, 1.018, -0.074, 192.0, 0.0, 0.0, 0.0, 0.0, 0.0, 0.0, 0.0, 0.0, 0.0, 1.694076795416109E9, 0.0, 2023-09-07 16:53:15.416
143.0, 3196.9476576981137, -33955.33966485735, -5109.832299927748, -11956.216330077212, 1327.8277311119714, 4662.953873032793, 3701.7171027323134, 17062.829978803395, 0.024, 1.018, -0.074, 192.0, 0.0, 0.0, 0.0, 0.0, 0.0, 0.0, 0.0, 0.0, 0.0, 1.694076795416207E9, 0.0, 2023-09-07 16:53:15.416
144.0, 2937.0415731718035, -33942.48741179555, -5309.9027645472015, -11124.731436339789, 1027.3532303992786, 4469.566580005477, 3398.0463025625113, 17201.410794426298, 0.024, 1.018, -0.074, 192.0, 0.0, 0.0, 0.0, 0.0, 0.0, 0.0, 0.0, 0.0, 0.0, 1.694076795416218E9, 0.0, 2023-09-07 16:53:15.416
145.0, 2664.685566983887, -34377.362951918, -5553.1567994543075, -11583.72450872952, 784.4568234034567, 4181.854925376764, 3183.0225209024575, 17345.870118840947, 0.024, 1.018, -0.074, 192.0, 0.0, 0.0, 0.0, 0.0, 0.0, 0.0, 0.0, 0.0, 0.0, 1.69407679541623E9, 0.0, 2023-09-07 16:53:15.416
146.0, 2846.405249405533, -34488.182900927415, -5404.2941813819625, -12368.181332132976, 1016.9149657386502, 4329.644659715254, 3430.67984946726, 17221.236791758158, 0.018000000000000002, 1.028, -0.07, 192.0, 0.0, 144.0, 32.0, 32.0, 253.0, 208.0, 0.0, 0.0, 0.0, 1.694076795416241E9, 0.0, 2023-09-07 16:53:15.416
147.0, 3195.9641809420805, -34021.76904937852, -5106.77011093737, -12117.126538410967, 1338.3330510059657, 4668.787678335629, 3712.5800505375923, 17101.00675833306, 0.018000000000000002, 1.028, -0.07, 192.0, 0.0, 0.0, 0.0, 0.0, 0.0, 0.0, 0.0, 0.0, 0.0, 1.694076795416253E9, 0.0, 2023-09-07 16:53:15.416
148.0, 3017.9995915889253, -33871.96765803905, -5252.950519675079, -11150.212425018839, 1102.8127196803953, 4549.451714688744, 3480.3677773914073, 17166.36325912038, 0.018000000000000002, 1.028, -0.07, 192.0, 0.0, 0.0, 0.0, 0.0, 0.0, 0.0, 0.0, 0.0, 0.0, 1.694076795416265E9, 0.0, 2023-09-07 16:53:15.416
149.0, 2686.9479044613727, -34331.854800206995, -5542.919700493777, -11463.136847393138, 793.4645764189454, 4223.876204952741, 3183.6036662582956, 17343.254964739677, 0.018000000000000002, 1.028, -0.07, 192.0, 0.0, 0.0, 0.0, 0.0, 0.0, 0.0, 0.0, 0.0, 0.0, 1.694076795416276E9, 0.0, 2023-09-07 16:53:15.416
150.0, 2792.604600501609, -34504.96906101335, -5457.916016330245, -12266.100915205589, 963.3154825348238, 4284.427080682169, 3374.7781365845367, 17238.02295184409, 0.018000000000000002, 1.028, -0.07, 192.0, 0.0, 0.0, 0.0, 0.0, 0.0, 0.0, 0.0, 0.0, 0.0, 1.694076795416286E9, 0.0, 2023-09-07 16:53:15.416
151.0, 3176.585218499329, -34118.17212321426, -5126.417294313585, -12270.034822229723, 1335.8967108603372, 4647.754686803185, 3723.621812298514, 17127.4935755126, 0.018000000000000002, 1.028, -0.07, 192.0, 0.0, 0.0, 0.0, 0.0, 0.0, 0.0, 0.0, 0.0, 0.0, 1.694076795416297E9, 0.0, 2023-09-07 16:53:15.416
152.0, 3077.723452773506, -33836.67425354412, -5208.559955186839, -11225.180175921938, 1161.396641897755, 4591.115366353437, 3525.1606732798427, 17133.90852617127, 0.018000000000000002, 1.028, -0.07, 192.0, 0.0, 0.0, 0.0, 0.0, 0.0, 0.0, 0.0, 0.0, 0.0, 1.694076795476368E9, 0.0, 2023-09-07 16:53:15.476
153.0, 2703.9128785029507, -34275.88603209091, -5524.837139229434, -11350.595814060667, 810.1389777826045, 4236.326126614347, 3224.5967655893287, 17335.320095458042, 0.018000000000000002, 1.028, -0.07, 192.0, 0.0, 0.0, 0.0, 0.0, 0.0, 0.0, 0.0, 0.0, 0.0, 1.694076795476405E9, 0.0, 2023-09-07 16:53:15.476
154.0, 2751.7232598928526, -34504.96906101335, -5500.473737773149, -12140.819387533593, 912.2864499433578, 4224.725571242043, 3338.411848355752, 17258.4747980207, 0.018000000000000002, 1.028, -0.07, 192.0, 0.0, 0.0, 0.0, 0.0, 0.0, 0.0, 0.0, 0.0, 0.0, 1.694076795476413E9, 0.0, 2023-09-07 16:53:15.476
155.0, 3113.2180229685337, -34236.658720571846, -5188.711606110526, -12393.371748134106, 1287.6392945813293, 4572.76458415563, 3676.0573000976206, 17140.167014618757, 0.018000000000000002, 1.028, -0.07, 192.0, 0.0, 0.0, 0.0, 0.0, 0.0, 0.0, 0.0, 0.0, 0.0, 1.694076795476421E9, 0.0, 2023-09-07 16:53:15.476
156.0, 3111.787511323394, -33838.01535821144, -5191.013835789423, -11359.760029287343, 1202.0321133175032, 4600.793671702584, 3582.984636185722, 17095.37411873032, 0.016, 1.014, -0.054, 192.0, 0.0, 128.0, 31.0, 176.0, 254.0, 80.0, 0.0, 0.0, 0.0, 1.694076795476428E9, 0.0, 2023-09-07 16:53:15.476
157.0, 2763.5920361986205, -34188.848339181946, -5471.014138581055, -11238.635926084033, 862.9337981860398, 4281.834278325353, 3274.8881906137694, 17318.444528394288, 0.016, 1.014, -0.054, 192.0, 0.0, 0.0, 0.0, 0.0, 0.0, 0.0, 0.0, 0.0, 0.0, 1.694076795476436E9, 0.0, 2023-09-07 16:53:15.476
158.0, 2735.317079462657, -34473.7883774982, -5514.309467590984, -11989.878057226904, 880.5916763057323, 4199.40104477418, 3283.8959436292585, 17278.211388374733, 0.016, 1.014, -0.054, 192.0, 0.0, 0.0, 0.0, 0.0, 0.0, 0.0, 0.0, 0.0, 0.0, 1.694076795476494E9, 0.0, 2023-09-07 16:53:15.476
159.0, 3078.304598129344, -34304.78683767162, -5215.7572169014475, -12441.875033602124, 1239.2701195800448, 4524.4624643877105, 3649.168151517886, 17163.345773618912, 0.016, 1.014, -0.054, 192.0, 0.0, 0.0, 0.0, 0.0, 0.0, 0.0, 0.0, 0.0, 0.0, 1.694076795476501E9, 0.0, 2023-09-07 16:53:15.476
160.0, 3155.485171733519, -33842.37394838023, -5155.5863208277615, -11517.719807352998, 1257.3079773554775, 4615.925802698827, 3626.1011512400096, 17062.405295658744, 0.016, 1.014, -0.054, 192.0, 0.0, 0.0, 0.0, 0.0, 0.0, 0.0, 0.0, 0.0, 0.0, 1.694076795476509E9, 0.0, 2023-09-07 16:53:15.476
161.0, 2799.1760133714693, -34124.430611661744, -5440.3922486772835, -11176.788649176198, 900.1271009596708, 4308.5669646939, 3278.5091732155292, 17267.79547545856, 0.016, 1.014, -0.054, 192.0, 0.0, 0.0, 0.0, 0.0, 0.0, 0.0, 0.0, 0.0, 0.0, 1.694076795476516E9, 0.0, 2023-09-07 16:53:15.476
162.0, 2692.133509175004, -34469.49684256278, -5556.218988444685, -11874.2524831596, 824.1535215560821, 4160.486657677491, 3217.06422770789, 17279.284272108587, 0.016, 1.014, -0.054, 192.0, 0.0, 0.0, 0.0, 0.0, 0.0, 0.0, 0.0, 0.0, 0.0, 1.694076795476523E9, 0.0, 2023-09-07 16:53:15.476
163.0, 3010.3999984741213, -34394.05970502612, -5274.430546096629, -12474.083897362221, 1191.2138690011345, 4458.033079866538, 3579.9671506842556, 17159.121293916858, 0.016, 1.014, -0.054, 192.0, 0.0, 0.0, 0.0, 0.0, 0.0, 0.0, 0.0, 0.0, 0.0, 1.69407679547653E9, 0.0, 2023-09-07 16:53:15.476
164.0, 3213.4432451061307, -33867.877288803735, -5103.149128335611, -11682.36275701079, 1323.35738222091, 4665.770192834162, 3719.6208500410144, 17069.75901958454, 0.016, 1.014, -0.054, 192.0, 0.0, 0.0, 0.0, 0.0, 0.0, 0.0, 0.0, 0.0, 0.0, 1.694076795476538E9, 0.0, 2023-09-07 16:53:15.476
165.0, 2880.5140114443316, -34032.49788671707, -5364.463372762606, -11103.229058173783, 972.5467529948656, 4395.336436669402, 3379.248485475598, 17256.440789275264, 0.016, 1.014, -0.054, 192.0, 0.0, 0.0, 0.0, 0.0, 0.0, 0.0, 0.0, 0.0, 0.0, 1.694076795476545E9, 0.0, 2023-09-07 16:53:15.476
166.0, 2677.5378200456885, -34439.590208481575, -5560.041136746542, -11730.508414567521, 806.8979748365849, 4169.337948481792, 3227.9048237687143, 17312.566019602542, 0.032, 1.016, -0.038, 192.0, 1.0, 0.0, 31.0, 192.0, 254.0, 208.0, 0.0, 0.0, 0.0, 1.694076795476558E9, 0.0, 2023-09-07 16:53:15.476
167.0, 2947.1669134100575, -34449.00029289726, -5327.471235689072, -12436.9352980775, 1120.3141355889006, 4416.771759602041, 3553.3015195490743, 17206.529343906564, 0.032, 1.016, -0.038, 192.0, 0.0, 0.0, 0.0, 0.0, 0.0, 0.0, 0.0, 0.0, 0.0, 1.69407679553662E9, 0.0, 2023-09-07 16:53:15.536
168.0, 3212.9962102170243, -33938.262932093494, -5106.077206859256, -11872.084363947435, 1327.5371584340523, 4679.49416392972, 3726.7734082667125, 17087.483952937597, 0.032, 1.016, -0.038, 192.0, 0.0, 0.0, 0.0, 0.0, 0.0, 0.0, 0.0, 0.0, 0.0, 1.69407679553667E9, 0.0, 2023-09-07 16:53:15.536
169.0, 2920.277764830323, -33983.860490782325, -5337.0824858048545, -11101.217401172806, 1016.2667651494462, 4442.520969214555, 3404.0142183320786, 17206.149364250825, 0.032, 1.016, -0.038, 192.0, 0.0, 0.0, 0.0, 0.0, 0.0, 0.0, 0.0, 0.0, 0.0, 1.69407679553668E9, 0.0, 2023-09-07 16:53:15.536
170.0, 2673.849782210563, -34405.056763298126, -5562.991567014643, -11598.00727343646, 798.5160706658448, 4185.319445767337, 3213.3538381283092, 17323.80894706356, 0.032, 1.016, -0.038, 192.0, 0.0, 0.0, 0.0, 0.0, 0.0, 0.0, 0.0, 0.0, 0.0, 1.694076795536688E9, 0.0, 2023-09-07 16:53:15.536
171.0, 2887.375996992111, -34491.91564225145, -5386.479841051083, -12365.83439896517, 1058.332748214334, 4354.4774478051, 3488.2355914396753, 17214.911248077304, 0.032, 1.016, -0.038, 192.0, 0.0, 0.0, 0.0, 0.0, 0.0, 0.0, 0.0, 0.0, 0.0, 1.694076795536697E9, 0.0, 2023-09-07 16:53:15.536
172.0, 3222.0933702103343, -34018.88567434379, -5102.567982979773, -12050.33952597851, 1351.7888011680604, 4676.007291794693, 3763.854952318067, 17103.688967667695, 0.032, 1.016, -0.038, 192.0, 0.0, 0.0, 0.0, 0.0, 0.0, 0.0, 0.0, 0.0, 0.0, 1.694076795536706E9, 0.0, 2023-09-07 16:53:15.536
173.0, 3019.4748067229757, -33896.822797873356, -5258.449048811084, -11105.933619252875, 1099.4376062676438, 4536.331240693479, 3502.9430392912677, 17190.056108243003, 0.032, 1.016, -0.038, 192.0, 0.0, 0.0, 0.0, 0.0, 0.0, 0.0, 0.0, 0.0, 0.0, 1.694076795536715E9, 0.0, 2023-09-07 16:53:15.536
174.0, 2700.157785434459, -34351.97137021677, -5541.757409782102, -11465.617891027678, 801.4888526784007, 4211.940373413608, 3220.5063963540074, 17342.785578106115, 0.032, 1.016, -0.038, 192.0, 0.0, 0.0, 0.0, 0.0, 0.0, 0.0, 0.0, 0.0, 0.0, 1.694076795536783E9, 0.0, 2023-09-07 16:53:15.536
175.0, 2840.3032231692346, -34509.12648548204, -5426.802388048457, -12269.14075245151, 1001.6040207867647, 4309.9751245945845, 3423.5719947304724, 17234.78194889807, 0.032, 1.016, -0.038, 192.0, 0.0, 0.0, 0.0, 0.0, 0.0, 0.0, 0.0, 0.0, 0.0, 1.694076795536792E9, 0.0, 2023-09-07 16:53:15.536
176.0, 3202.6697042786723, -34112.763001056075, -5113.788558696337, -12208.388711021986, 1349.2183505557002, 4666.194875978813, 3753.8413708020894, 17130.4440057807, 0.052000000000000005, 1.014, -0.028, 192.0, 1.0, 160.0, 31.0, 176.0, 255.0, 32.0, 0.0, 0.0, 0.0, 1.694076795536801E9, 0.0, 2023-09-07 16:53:15.536
177.0, 3066.3464148457547, -33868.34667543729, -5224.832025150303, -11181.795439934187, 1143.627005055786, 4574.820944645518, 3545.612519456449, 17150.091189156912, 0.052000000000000005, 1.014, -0.028, 192.0, 0.0, 0.0, 0.0, 0.0, 0.0, 0.0, 0.0, 0.0, 0.0, 1.69407679553681E9, 0.0, 2023-09-07 16:53:15.536
178.0, 2719.134416477015, -34301.00939285867, -5521.3949705833165, -11355.379087374102, 814.9893063294061, 4243.992774962518, 3233.8056843049153, 17348.90995608687, 0.052000000000000005, 1.014, -0.028, 192.0, 0.0, 0.0, 0.0, 0.0, 0.0, 0.0, 0.0, 0.0, 0.0, 1.69407679553682E9, 0.0, 2023-09-07 16:53:15.536
179.0, 2780.445251517922, -34522.291662966214, -5482.9499701201885, -12159.997184276246, 936.6051479107318, 4259.482533870046, 3344.5138745920513, 17263.03455388958, 0.052000000000000005, 1.014, -0.028, 192.0, 0.0, 0.0, 0.0, 0.0, 0.0, 0.0, 0.0, 0.0, 0.0, 1.694076795536828E9, 0.0, 2023-09-07 16:53:15.536
180.0, 3181.904933679692, -34190.10003687144, -5129.390076326141, -12328.864613636091, 1342.6692894302953, 4641.920881500349, 3746.2194259428297, 17155.522663059553, 0.052000000000000005, 1.014, -0.028, 192.0, 0.0, 0.0, 0.0, 0.0, 0.0, 0.0, 0.0, 0.0, 0.0, 1.694076795536837E9, 0.0, 2023-09-07 16:53:15.536
181.0, 3149.7407734085054, -33811.86381719873, -5154.289919649354, -11267.827304342665, 1231.2234915761342, 4643.194930934302, 3627.643421607426, 17126.2418778231, 0.052000000000000005, 1.014, -0.028, 192.0, 0.0, 0.0, 0.0, 0.0, 0.0, 0.0, 0.0, 0.0, 0.0, 1.694076795536846E9, 0.0, 2023-09-07 16:53:15.536
182.0, 2764.039071087727, -34212.6752987713, -5472.467001970649, -11236.691324316422, 854.730707970942, 4291.669045885688, 3262.5053241855294, 17336.86236582546, 0.052000000000000005, 1.014, -0.028, 192.0, 0.0, 0.0, 0.0, 0.0, 0.0, 0.0, 0.0, 0.0, 0.0, 1.694076795597534E9, 0.0, 2023-09-07 16:53:15.597
183.0, 2736.2111492408694, -34500.09638072209, -5516.030551914043, -12019.851746541472, 878.3565018602017, 4213.773216458942, 3304.0125136390348, 17283.776972744105, 0.052000000000000005, 1.014, -0.028, 192.0, 0.0, 0.0, 0.0, 0.0, 0.0, 0.0, 0.0, 0.0, 0.0, 1.694076795597563E9, 0.0, 2023-09-07 16:53:15.597
184.0, 3114.3132584468435, -34285.094950806495, -5188.443385177063, -12416.975190278912, 1278.162154932279, 4565.746136396663, 3691.457652027327, 17167.100866687404, 0.052000000000000005, 1.014, -0.028, 192.0, 0.0, 0.0, 0.0, 0.0, 0.0, 0.0, 0.0, 0.0, 0.0, 1.694076795597572E9, 0.0, 2023-09-07 16:53:15.597
185.0, 3188.074015149357, -33812.1320381322, -5126.35023908022, -11421.517899217355, 1268.193276905212, 4655.019003751159, 3663.987358091755, 17091.887246595295, 0.052000000000000005, 1.014, -0.028, 192.0, 0.0, 0.0, 0.0, 0.0, 0.0, 0.0, 0.0, 0.0, 0.0, 1.69407679559758E9, 0.0, 2023-09-07 16:53:15.597
186.0, 2809.3013536097233, -34127.448097163215, -5425.9306700147, -11146.055000550152, 910.7665313203969, 4327.342430036358, 3313.064970143434, 17305.0334817211, 0.048, 1.012, -0.034, 192.0, 1.0, 128.0, 31.0, 160.0, 254.0, 240.0, 0.0, 0.0, 0.0, 1.694076795597589E9, 0.0, 2023-09-07 16:53:15.597
187.0, 2706.5280326042216, -34471.41909258594, -5537.354116124406, -11877.962872739181, 850.7297457134421, 4192.494355737491, 3252.2458734805437, 17301.79247877508, 0.048, 1.012, -0.034, 192.0, 0.0, 0.0, 0.0, 0.0, 0.0, 0.0, 0.0, 0.0, 0.0, 1.694076795597598E9, 0.0, 2023-09-07 16:53:15.597
188.0, 3060.780830476383, -34352.776033017166, -5225.6143362062385, -12438.566975422738, 1238.91249166876, 4522.003772497627, 3632.3372879430403, 17197.78981182454, 0.048, 1.012, -0.034, 192.0, 0.0, 0.0, 0.0, 0.0, 0.0, 0.0, 0.0, 0.0, 0.0, 1.694076795597606E9, 0.0, 2023-09-07 16:53:15.597
189.0, 3213.130320683756, -33845.8384687708, -5100.19869806751, -11601.047110682382, 1317.031838540058, 4675.694367372318, 3679.3206547880955, 17085.986386059092, 0.048, 1.012, -0.034, 192.0, 0.0, 0.0, 0.0, 0.0, 0.0, 0.0, 0.0, 0.0, 0.0, 1.694076795597614E9, 0.0, 2023-09-07 16:53:15.597
190.0, 2844.6618133380193, -34067.09838713388, -5397.678065023192, -11108.235848931772, 937.4768659444888, 4373.163506169737, 3325.6937057606824, 17265.40383880184, 0.048, 1.012, -0.034, 192.0, 0.0, 0.0, 0.0, 0.0, 0.0, 0.0, 0.0, 0.0, 0.0, 1.69407679559765E9, 0.0, 2023-09-07 16:53:15.597
191.0, 2663.9032559279512, -34461.9866564258, -5572.491058408148, -11769.109877241835, 801.9358875675068, 4157.513875664935, 3205.4189688466754, 17307.93920850029, 0.048, 1.012, -0.034, 192.0, 0.0, 0.0, 0.0, 0.0, 0.0, 0.0, 0.0, 0.0, 0.0, 1.694076795597658E9, 0.0, 2023-09-07 16:53:15.597
192.0, 2971.3067974217893, -34434.47165900131, -5305.566526122871, -12448.111170305154, 1158.0885837183696, 4424.796035861496, 3563.2033423427756, 17194.191180967235, 0.048, 1.012, -0.034, 192.0, 0.0, 0.0, 0.0, 0.0, 0.0, 0.0, 0.0, 0.0, 0.0, 1.694076795597666E9, 0.0, 2023-09-07 16:53:15.597
193.0, 3226.8319400348596, -33900.71200140858, -5094.5437067203175, -11804.202116036668, 1347.385507510365, 4677.951893562305, 3734.3282978926063, 17083.170066257724, 0.048, 1.012, -0.034, 192.0, 0.0, 0.0, 0.0, 0.0, 0.0, 0.0, 0.0, 0.0, 0.0, 1.694076795597674E9, 0.0, 2023-09-07 16:53:15.597
194.0, 2926.2903840888007, -33964.48152833957, -5333.43915145864, -11071.087249647051, 1016.7138000385523, 4446.231358794136, 3418.9451836282237, 17239.766387911604, 0.048, 1.012, -0.034, 192.0, 0.0, 0.0, 0.0, 0.0, 0.0, 0.0, 0.0, 0.0, 0.0, 1.694076795597683E9, 0.0, 2023-09-07 16:53:15.597
195.0, 2680.8905817139844, -34395.42316143789, -5561.873979791878, -11618.05678821287, 807.3897132146017, 4180.312655009348, 3199.004018188002, 17339.81279609356, 0.048, 1.012, -0.034, 192.0, 0.0, 0.0, 0.0, 0.0, 0.0, 0.0, 0.0, 0.0, 0.0, 1.69407679559769E9, 0.0, 2023-09-07 16:53:15.597
196.0, 2892.405139494555, -34483.33257238061, -5389.519678297005, -12396.88097201359, 1072.302588498901, 4348.509532035534, 3432.15506460131, 17199.868524058882, 0.046, 1.01, -0.034, 192.0, 1.0, 112.0, 31.0, 144.0, 254.0, 240.0, 0.0, 0.0, 0.0, 1.694076795597699E9, 0.0, 2023-09-07 16:53:15.597
197.0, 3212.0127334609906, -33999.372601434305, -5124.606803012705, -12014.375569149921, 1343.1386760638568, 4643.73137280123, 3701.9629719213217, 17089.741479127584, 0.046, 1.01, -0.034, 192.0, 0.0, 0.0, 0.0, 0.0, 0.0, 0.0, 0.0, 0.0, 0.0, 1.694076795655844E9, 0.0, 2023-09-07 16:53:15.655
198.0, 2977.945265525015, -33925.47773426506, -5309.232212213542, -11104.301941907637, 1053.013033033971, 4481.390652822334, 3442.034535650556, 17185.87633202986, 0.046, 1.01, -0.034, 192.0, 0.0, 0.0, 0.0, 0.0, 0.0, 0.0, 0.0, 0.0, 0.0, 1.694076795655887E9, 0.0, 2023-09-07 16:53:15.655
199.0, 2667.7701077187194, -34366.34354190154, -5571.284064207562, -11505.225182202481, 785.9767420264176, 4192.427300504124, 3193.684303007639, 17344.685476384817, 0.046, 1.01, -0.034, 192.0, 0.0, 0.0, 0.0, 0.0, 0.0, 0.0, 0.0, 0.0, 0.0, 1.694076795655895E9, 0.0, 2023-09-07 16:53:15.655
200.0, 2812.1176734110923, -34506.556034869674, -5444.482617912605, -12312.033750061244, 1012.2881546364016, 4291.84785984133, 3369.5254766375397, 17220.96857082469, 0.046, 1.01, -0.034, 192.0, 0.0, 0.0, 0.0, 0.0, 0.0, 0.0, 0.0, 0.0, 0.0, 1.694076795655903E9, 0.0, 2023-09-07 16:53:15.655
201.0, 3201.5297653114517, -34068.88652669031, -5122.505739033907, -12177.342137973565, 1362.450583273242, 4653.141457216913, 3692.374073549995, 17109.85804913736, 0.046, 1.01, -0.034, 192.0, 0.0, 0.0, 0.0, 0.0, 0.0, 0.0, 0.0, 0.0, 0.0, 1.694076795655911E9, 0.0, 2023-09-07 16:53:15.655
202.0, 3055.885798440671, -33858.60131485478, -5251.654118496671, -11153.11815179803, 1128.4501705706323, 4540.555720395532, 3520.243289499675, 17147.163110633268, 0.046, 1.01, -0.034, 192.0, 0.0, 0.0, 0.0, 0.0, 0.0, 0.0, 0.0, 0.0, 0.0, 1.694076795655918E9, 0.0, 2023-09-07 16:53:15.655
203.0, 2708.8526140275735, -34297.45546549028, -5543.746715038624, -11382.670567354033, 811.3906754721016, 4208.699370467588, 3229.111817969301, 17347.23357525272, 0.046, 1.01, -0.034, 192.0, 0.0, 0.0, 0.0, 0.0, 0.0, 0.0, 0.0, 0.0, 0.0, 1.694076795655926E9, 0.0, 2023-09-07 16:53:15.655
204.0, 2791.285847578746, -34498.48705512131, -5488.269685300552, -12188.98739683478, 949.0774213167932, 4250.27361515446, 3363.1775812122323, 17252.79745492905, 0.046, 1.01, -0.034, 192.0, 0.0, 0.0, 0.0, 0.0, 0.0, 0.0, 0.0, 0.0, 0.0, 1.694076795655934E9, 0.0, 2023-09-07 16:53:15.655
205.0, 3157.6756426901393, -34178.00774312112, -5164.012928487412, -12327.076474079666, 1315.1989954947228, 4604.414654304344, 3728.0698094451204, 17141.23989835261, 0.048, 1.002, -0.042, 192.0, 1.0, 128.0, 31.0, 80.0, 254.0, 176.0, 0.0, 0.0, 0.0, 1.694076795655942E9, 0.0, 2023-09-07 16:53:15.655
206.0, 3099.9410867620813, -33831.35453836376, -5209.990466831979, -11266.173275252972, 1197.4723574486206, 4571.33407251049, 3566.9360836668116, 17106.974674102625, 0.048, 1.002, -0.042, 192.0, 0.0, 0.0, 0.0, 0.0, 0.0, 0.0, 0.0, 0.0, 0.0, 1.694076795656027E9, 0.0, 2023-09-07 16:53:15.656
207.0, 2727.7621898367634, -34233.86475251493, -5517.61752577037, -11280.634853915555, 836.0446496063054, 4248.261958153482, 3215.2090329180996, 17329.15101398838, 0.048, 1.002, -0.042, 192.0, 0.0, 0.0, 0.0, 0.0, 0.0, 0.0, 0.0, 0.0, 0.0, 1.694076795656034E9, 0.0, 2023-09-07 16:53:15.656
208.0, 2723.6941723458976, -34514.42384891795, -5552.0392122315425, -12079.016814114668, 879.0941094272267, 4188.381634757714, 3250.0777542683786, 17282.2794058656, 0.048, 1.002, -0.042, 192.0, 0.0, 0.0, 0.0, 0.0, 0.0, 0.0, 0.0, 0.0, 0.0, 1.694076795656041E9, 0.0, 2023-09-07 16:53:15.656
209.0, 3129.8030173543716, -34258.5857818825, -5193.003141045945, -12415.969361778423, 1304.6266203673626, 4549.675232133297, 3686.495564758249, 17169.24663415511, 0.048, 1.002, -0.042, 192.0, 0.0, 0.0, 0.0, 0.0, 0.0, 0.0, 0.0, 0.0, 0.0, 1.694076795656048E9, 0.0, 2023-09-07 16:53:15.656
210.0, 3174.394747542709, -33804.465389784025, -5155.340451638753, -11391.499506413878, 1264.3487768588993, 4626.900509226383, 3645.524817171671, 17099.844467621384, 0.048, 1.002, -0.042, 192.0, 0.0, 0.0, 0.0, 0.0, 0.0, 0.0, 0.0, 0.0, 0.0, 1.694076795656055E9, 0.0, 2023-09-07 16:53:15.656
211.0, 2804.0039901738155, -34139.13805951334, -5456.50785642956, -11173.793515419187, 888.6606560540982, 4309.170461794193, 3288.612161709328, 17315.404691148364, 0.048, 1.002, -0.042, 192.0, 0.0, 0.0, 0.0, 0.0, 0.0, 0.0, 0.0, 0.0, 0.0, 1.694076795656063E9, 0.0, 2023-09-07 16:53:15.656
212.0, 2701.1412621904924, -34487.44529336039, -5565.874942049378, -11935.630373433874, 840.4926467529115, 4165.806372857854, 3227.524844112974, 17285.252187878155, 0.048, 1.002, -0.042, 192.0, 0.0, 0.0, 0.0, 0.0, 0.0, 0.0, 0.0, 0.0, 0.0, 1.694076795716096E9, 0.0, 2023-09-07 16:53:15.716
213.0, 3068.782754991383, -34336.99570143172, -5230.308202541853, -12461.969251867444, 1259.811372734472, 4513.085426459959, 3633.633689121448, 17186.010442496594, 0.048, 1.002, -0.042, 192.0, 0.0, 0.0, 0.0, 0.0, 0.0, 0.0, 0.0, 0.0, 0.0, 1.694076795716142E9, 0.0, 2023-09-07 16:53:15.716
214.0, 3205.620134546773, -33830.79574475238, -5116.738988964437, -11565.932520143095, 1309.454597169709, 4655.890721784916, 3687.233172325274, 17086.500476181565, 0.048, 1.002, -0.042, 192.0, 0.0, 0.0, 0.0, 0.0, 0.0, 0.0, 0.0, 0.0, 0.0, 1.69407679571615E9, 0.0, 2023-09-07 16:53:15.716
215.0, 2847.0758017391922, -34070.92053543574, -5407.132852927787, -11115.790738557665, 939.6226334121983, 4349.045973902461, 3308.9746009081127, 17278.32314709701, 0.046, 1.012, -0.046, 192.0, 1.0, 112.0, 31.0, 160.0, 254.0, 144.0, 0.0, 0.0, 0.0, 1.694076795716157E9, 0.0, 2023-09-07 16:53:15.716
216.0, 2682.4328520814006, -34454.118842377524, -5569.697090351235, -11798.949456089671, 819.4373034760122, 4141.152398723651, 3168.426831773142, 17303.692377053783, 0.046, 1.012, -0.046, 192.0, 0.0, 0.0, 0.0, 0.0, 0.0, 0.0, 0.0, 0.0, 0.0, 1.694076795716166E9, 0.0, 2023-09-07 16:53:15.716
217.0, 2995.1561087556015, -34413.84099886906, -5297.452842885595, -12470.41821127155, 1175.4111856712325, 4421.644439893298, 3533.542577450583, 17182.63532908384, 0.046, 1.012, -0.046, 192.0, 0.0, 0.0, 0.0, 0.0, 0.0, 0.0, 0.0, 0.0, 0.0, 1.694076795716173E9, 0.0, 2023-09-07 16:53:15.716
218.0, 3228.9553557581135, -33884.12700702274, -5101.517450990374, -11763.857217294839, 1339.3388795064545, 4652.5379601166205, 3692.2176113388077, 17073.1788364862, 0.046, 1.012, -0.046, 192.0, 0.0, 0.0, 0.0, 0.0, 0.0, 0.0, 0.0, 0.0, 0.0, 1.69407679571618E9, 0.0, 2023-09-07 16:53:15.716
219.0, 2900.6752849430186, -33989.78370306298, -5354.561549968905, -11079.692671262344, 989.4223200586224, 4402.936029784207, 3341.071705945934, 17230.423358729287, 0.046, 1.012, -0.046, 192.0, 0.0, 0.0, 0.0, 0.0, 0.0, 0.0, 0.0, 0.0, 0.0, 1.694076795716187E9, 0.0, 2023-09-07 16:53:15.716
220.0, 2663.2774070832024, -34413.81864712461, -5564.220912959685, -11664.235492257536, 795.3197712087359, 4163.548846667868, 3172.2489800749995, 17341.980915305725, 0.046, 1.012, -0.046, 192.0, 0.0, 0.0, 0.0, 0.0, 0.0, 0.0, 0.0, 0.0, 0.0, 1.694076795716195E9, 0.0, 2023-09-07 16:53:15.716
221.0, 2910.867680414639, -34467.66399951744, -5346.492570220539, -12425.468853171928, 1100.175213834669, 4364.356918854346, 3509.31328646103, 17210.93263756426, 0.046, 1.012, -0.046, 192.0, 0.0, 0.0, 0.0, 0.0, 0.0, 0.0, 0.0, 0.0, 0.0, 1.694076795716269E9, 0.0, 2023-09-07 16:53:15.716
222.0, 3225.423780134175, -33954.423243334684, -5079.500982701896, -11958.786780689572, 1359.0754698604906, 4672.92275105986, 3722.4818733312936, 17098.324548998422, 0.046, 1.012, -0.046, 192.0, 0.0, 0.0, 0.0, 0.0, 0.0, 0.0, 0.0, 0.0, 0.0, 1.694076795716276E9, 0.0, 2023-09-07 16:53:15.716
223.0, 2970.055099732292, -33915.64296670473, -5283.661816556671, -11076.697537505333, 1050.4872859105212, 4470.013614894583, 3412.999619603112, 17208.31748346299, 0.046, 1.012, -0.046, 192.0, 0.0, 0.0, 0.0, 0.0, 0.0, 0.0, 0.0, 0.0, 0.0, 1.694076795716284E9, 0.0, 2023-09-07 16:53:15.716
224.0, 2674.7215002443195, -34363.259001166705, -5546.607738328903, -11529.767397614409, 791.3411606956912, 4154.831666330298, 3151.886540876215, 17334.62719137993, 0.046, 1.012, -0.046, 192.0, 0.0, 0.0, 0.0, 0.0, 0.0, 0.0, 0.0, 0.0, 0.0, 1.694076795716291E9, 0.0, 2023-09-07 16:53:15.716
225.0, 2859.2575024673347, -34480.96328746835, -5392.06777716491, -12333.737293927348, 1045.368736430256, 4299.872136100786, 3420.845081906925, 17213.659550387805, 0.036000000000000004, 1.02, -0.044, 192.0, 1.0, 32.0, 31.0, 224.0, 254.0, 160.0, 0.0, 0.0, 0.0, 1.694076795716299E9, 0.0, 2023-09-07 16:53:15.716
226.0, 3221.176948687667, -34026.48526745859, -5080.819735624759, -12129.665867050395, 1366.228028086189, 4667.692442857318, 3733.8365595145897, 17114.037825350504, 0.036000000000000004, 1.02, -0.044, 192.0, 0.0, 0.0, 0.0, 0.0, 0.0, 0.0, 0.0, 0.0, 0.0, 1.694076795716307E9, 0.0, 2023-09-07 16:53:15.716
227.0, 3034.338716785755, -33854.26507643045, -5232.185749076099, -11123.502090394746, 1114.0556471414145, 4534.163121481314, 3455.1103061569106, 17169.917186488772, 0.036000000000000004, 1.02, -0.044, 192.0, 0.0, 0.0, 0.0, 0.0, 0.0, 0.0, 0.0, 0.0, 0.0, 1.694076795776393E9, 0.0, 2023-09-07 16:53:15.776
228.0, 2699.3978261229786, -34302.88693939292, -5515.874089702856, -11402.898896086084, 804.2381172464035, 4205.324257054836, 3194.332503596843, 17352.28506949962, 0.036000000000000004, 1.02, -0.044, 192.0, 0.0, 0.0, 0.0, 0.0, 0.0, 0.0, 0.0, 0.0, 0.0, 1.694076795776419E9, 0.0, 2023-09-07 16:53:15.776
229.0, 2773.538562481232, -34520.056488520684, -5463.816876866445, -12241.46929281584, 948.8762556166954, 4242.763429017476, 3354.0133659855564, 17245.957821125725, 0.036000000000000004, 1.02, -0.044, 192.0, 0.0, 0.0, 0.0, 0.0, 0.0, 0.0, 0.0, 0.0, 0.0, 1.694076795776426E9, 0.0, 2023-09-07 16:53:15.776
230.0, 3141.3812209822204, -34166.586001704454, -5135.425047329074, -12322.002628088312, 1329.615870668396, 4596.993875145183, 3695.1009863735426, 17119.737520186605, 0.036000000000000004, 1.02, -0.044, 192.0, 0.0, 0.0, 0.0, 0.0, 0.0, 0.0, 0.0, 0.0, 0.0, 1.694076795776433E9, 0.0, 2023-09-07 16:53:15.776
231.0, 3081.5456010753637, -33839.84820125678, -5195.193612002566, -11235.819606282665, 1169.5326768794866, 4552.6927176347635, 3552.385098026407, 17129.72874995813, 0.036000000000000004, 1.02, -0.044, 192.0, 0.0, 0.0, 0.0, 0.0, 0.0, 0.0, 0.0, 0.0, 0.0, 1.69407679577644E9, 0.0, 2023-09-07 16:53:15.776
232.0, 2713.568832107643, -34263.16788949584, -5511.291982089518, -11317.783453200276, 816.2633557633586, 4206.911230911163, 3240.421800663686, 17340.05866528257, 0.036000000000000004, 1.02, -0.044, 192.0, 0.0, 0.0, 0.0, 0.0, 0.0, 0.0, 0.0, 0.0, 0.0, 1.694076795776447E9, 0.0, 2023-09-07 16:53:15.776
233.0, 2756.215960528369, -34499.649345832986, -5491.376577779839, -12111.806823230603, 906.6314585961651, 4217.0589228938725, 3319.926955691213, 17267.259033591632, 0.036000000000000004, 1.02, -0.044, 192.0, 0.0, 0.0, 0.0, 0.0, 0.0, 0.0, 0.0, 0.0, 0.0, 1.694076795776454E9, 0.0, 2023-09-07 16:53:15.776
234.0, 3162.0789363478348, -34218.95613896324, -5138.755457252915, -12396.188067935476, 1321.613946153396, 4587.293218051579, 3687.590800236559, 17144.033866409525, 0.036000000000000004, 1.02, -0.044, 192.0, 0.0, 0.0, 0.0, 0.0, 0.0, 0.0, 0.0, 0.0, 0.0, 1.694076795776461E9, 0.0, 2023-09-07 16:53:15.776
235.0, 3158.5473607238964, -33796.64227922467, -5135.737971751449, -11341.76687500082, 1249.328404584933, 4627.5934133044975, 3586.7620809986693, 17090.814362861438, 0.028, 1.01, -0.046, 192.0, 0.0, 224.0, 31.0, 144.0, 254.0, 144.0, 0.0, 0.0, 0.0, 1.694076795776468E9, 0.0, 2023-09-07 16:53:15.776
236.0, 2772.0409956027265, -34164.84256563694, -5449.8470365818785, -11197.240495352806, 874.9590367029949, 4299.156880278216, 3256.69387062715, 17318.936266772303, 0.028, 1.01, -0.046, 192.0, 0.0, 0.0, 0.0, 0.0, 0.0, 0.0, 0.0, 0.0, 0.0, 1.694076795776475E9, 0.0, 2023-09-07 16:53:15.776
237.0, 2716.452207142378, -34474.2354123873, -5517.796339726012, -11960.619623734907, 867.0912226547268, 4194.506012738468, 3282.264266284021, 17301.4348508638, 0.028, 1.01, -0.046, 192.0, 0.0, 0.0, 0.0, 0.0, 0.0, 0.0, 0.0, 0.0, 0.0, 1.694076795776507E9, 0.0, 2023-09-07 16:53:15.776
238.0, 3076.8964382286595, -34313.816942431564, -5201.452100450051, -12455.643708186593, 1259.1631721452682, 4522.048475986538, 3654.979605076266, 17175.81804702497, 0.028, 1.01, -0.046, 192.0, 0.0, 0.0, 0.0, 0.0, 0.0, 0.0, 0.0, 0.0, 0.0, 1.694076795776515E9, 0.0, 2023-09-07 16:53:15.776
239.0, 3200.0545501774013, -33803.79483745037, -5100.958657378991, -11504.822850802286, 1297.6975795862174, 4662.260968954679, 3670.2905500281518, 17089.316795982933, 0.028, 1.01, -0.046, 192.0, 0.0, 0.0, 0.0, 0.0, 0.0, 0.0, 0.0, 0.0, 0.0, 1.694076795776521E9, 0.0, 2023-09-07 16:53:15.776
240.0, 2836.2128539339133, -34070.02646565753, -5396.873402222801, -11110.180450699383, 921.5400721478549, 4351.795238470464, 3312.7296939766043, 17304.51939159863, 0.028, 1.01, -0.046, 192.0, 0.0, 0.0, 0.0, 0.0, 0.0, 0.0, 0.0, 0.0, 0.0, 1.694076795776528E9, 0.0, 2023-09-07 16:53:15.776
241.0, 2695.262753398747, -34440.797202682166, -5537.599985313414, -11814.975656864126, 826.2545855348809, 4159.34671871027, 3211.453939849608, 17316.835202793503, 0.028, 1.01, -0.046, 192.0, 0.0, 0.0, 0.0, 0.0, 0.0, 0.0, 0.0, 0.0, 0.0, 1.694076795776535E9, 0.0, 2023-09-07 16:53:15.776
242.0, 3012.2551932639117, -34382.816777565095, -5256.280929598919, -12460.963423366955, 1185.7376916095843, 4456.3119955434795, 3580.2353716177195, 17190.011404754092, 0.028, 1.01, -0.046, 192.0, 0.0, 0.0, 0.0, 0.0, 0.0, 0.0, 0.0, 0.0, 0.0, 1.694076795836683E9, 0.0, 2023-09-07 16:53:15.836
243.0, 3231.458751137108, -33842.59746582478, -5070.984968064424, -11692.689262949141, 1340.3447080069434, 4681.192896508324, 3706.366265579017, 17085.13701976979, 0.028, 1.01, -0.046, 192.0, 0.0, 0.0, 0.0, 0.0, 0.0, 0.0, 0.0, 0.0, 0.0, 1.694076795836715E9, 0.0, 2023-09-07 16:53:15.836
244.0, 2896.540212218787, -33994.18699672067, -5341.195206784631, -11072.070726403086, 990.919886937128, 4401.3714076723345, 3354.750973552582, 17249.93643163877, 0.028, 1.01, -0.046, 192.0, 0.0, 0.0, 0.0, 0.0, 0.0, 0.0, 0.0, 0.0, 0.0, 1.694076795836725E9, 0.0, 2023-09-07 16:53:15.836
245.0, 2684.0421776821827, -34409.7729813782, -5542.696183049225, -11687.861286146795, 815.5928034296994, 4158.2961867208705, 3188.386939571731, 17323.496022641186, 0.018000000000000002, 1.006, -0.042, 192.0, 0.0, 144.0, 31.0, 112.0, 254.0, 176.0, 0.0, 0.0, 0.0, 1.694076795836734E9, 0.0, 2023-09-07 16:53:15.836
246.0, 2924.5245962768313, -34458.0303976572, -5336.233119515553, -12444.266670258841, 1112.3792663072666, 4373.811706758941, 3484.055815226533, 17189.296148931524, 0.018000000000000002, 1.006, -0.042, 192.0, 0.0, 0.0, 0.0, 0.0, 0.0, 0.0, 0.0, 0.0, 0.0, 1.694076795836744E9, 0.0, 2023-09-07 16:53:15.836
247.0, 3194.86894546377, -33957.59719104734, -5111.776901695359, -11934.468082722198, 1325.2125770107004, 4635.77415177514, 3679.857096655023, 17064.37224917081, 0.018000000000000002, 1.006, -0.042, 192.0, 0.0, 0.0, 0.0, 0.0, 0.0, 0.0, 0.0, 0.0, 0.0, 1.694076795836753E9, 0.0, 2023-09-07 16:53:15.836
248.0, 2925.9104044330606, -33957.977170703074, -5330.220500257075, -11106.447709375348, 1009.1365586682033, 4425.935974828717, 3376.8568488188803, 17190.458439643196, 0.018000000000000002, 1.006, -0.042, 192.0, 0.0, 0.0, 0.0, 0.0, 0.0, 0.0, 0.0, 0.0, 0.0, 1.694076795836762E9, 0.0, 2023-09-07 16:53:15.836
249.0, 2655.4766482683003, -34391.913937558405, -5564.869113548889, -11585.847924452773, 774.2420761873814, 4160.129029766206, 3160.2013898135892, 17330.223897722233, 0.018000000000000002, 1.006, -0.042, 192.0, 0.0, 0.0, 0.0, 0.0, 0.0, 0.0, 0.0, 0.0, 0.0, 1.694076795836771E9, 0.0, 2023-09-07 16:53:15.836
250.0, 2833.731810299374, -34512.92628203944, -5418.398132133261, -12394.578742334694, 1012.466968592044, 4294.284199986959, 3392.5924769154167, 17197.722756591174, 0.018000000000000002, 1.006, -0.042, 192.0, 0.0, 0.0, 0.0, 0.0, 0.0, 0.0, 0.0, 0.0, 0.0, 1.69407679583678E9, 0.0, 2023-09-07 16:53:15.836
251.0, 3194.131337896745, -34028.56397969294, -5103.43970101353, -12119.205250645311, 1343.6304144418734, 4648.11231471447, 3705.1592713784307, 17087.86393259334, 0.018000000000000002, 1.006, -0.042, 192.0, 0.0, 0.0, 0.0, 0.0, 0.0, 0.0, 0.0, 0.0, 0.0, 1.694076795836791E9, 0.0, 2023-09-07 16:53:15.836
252.0, 2995.334922711244, -33880.97541105454, -5261.980624435023, -11127.01131427423, 1082.0703008258702, 4502.043664699038, 3448.0471549090335, 17156.86376772687, 0.018000000000000002, 1.006, -0.042, 192.0, 0.0, 0.0, 0.0, 0.0, 0.0, 0.0, 0.0, 0.0, 0.0, 1.6940767958368E9, 0.0, 2023-09-07 16:53:15.836
253.0, 2679.4377183243896, -34325.03751814813, -5538.136427180341, -11447.468274529967, 791.6093816291549, 4190.594457458789, 3155.462819989064, 17343.47848218423, 0.018000000000000002, 1.006, -0.042, 192.0, 0.0, 0.0, 0.0, 0.0, 0.0, 0.0, 0.0, 0.0, 0.0, 1.694076795836846E9, 0.0, 2023-09-07 16:53:15.836
254.0, 2784.3791585420563, -34514.28973845121, -5460.3523564758725, -12276.069793232655, 958.0851743322819, 4248.261958153482, 3333.606223297861, 17227.070597060992, 0.018000000000000002, 1.006, -0.042, 192.0, 0.0, 0.0, 0.0, 0.0, 0.0, 0.0, 0.0, 0.0, 0.0, 1.694076795836855E9, 0.0, 2023-09-07 16:53:15.836
255.0, 3163.5765032263403, -34126.21875121817, -5125.187948368543, -12280.361328168074, 1332.543949192041, 4615.188195131802, 3699.951314920344, 17111.84735439388, 0.016, 1.01, -0.048, 192.0, 0.0, 128.0, 31.0, 144.0, 254.0, 128.0, 0.0, 0.0, 0.0, 1.694076795836863E9, 0.0, 2023-09-07 16:53:15.836
0.0, 3060.669071754107, -33842.53041059142, -5213.589097689283, -11212.21616413786, 1148.9690719806042, 4559.599406671454, 3512.8448620849686, 17131.20396509218, 0.016, 1.01, -0.048, 192.0, 0.0, 0.0, 0.0, 0.0, 0.0, 0.0, 0.0, 0.0, 0.0, 1.694076795836873E9, 0.0, 2023-09-07 16:53:15.836
1.0, 2701.901221501973, -34276.60128791348, -5517.572822281459, -11346.505444825345, 807.0320853033168, 4210.375751301736, 3192.901991951703, 17344.059627540068, 0.016, 1.01, -0.048, 192.0, 0.0, 0.0, 0.0, 0.0, 0.0, 0.0, 0.0, 0.0, 0.0, 1.694076795896277E9, 0.0, 2023-09-07 16:53:15.896
2.0, 2727.672782858942, -34525.46561067887, -5511.403740811795, -12161.74062034376, 888.3030281428133, 4191.086195836806, 3268.003853321535, 17244.66141994732, 0.016, 1.01, -0.048, 192.0, 0.0, 0.0, 0.0, 0.0, 0.0, 0.0, 0.0, 0.0, 0.0, 1.694076795896317E9, 0.0, 2023-09-07 16:53:15.896
3.0, 3107.0712932433244, -34246.89581953237, -5183.213076974521, -12418.293943201774, 1264.9969774481033, 4557.319528737013, 3641.8814828254563, 17127.404168534777, 0.016, 1.01, -0.048, 192.0, 0.0, 0.0, 0.0, 0.0, 0.0, 0.0, 0.0, 0.0, 0.0, 1.694076795896327E9, 0.0, 2023-09-07 16:53:15.896
4.0, 3113.977982280014, -33826.213637139044, -5171.098431479744, -11340.29165986677, 1199.0146278160369, 4596.636247233898, 3575.3403395820073, 17099.397432732276, 0.016, 1.01, -0.048, 192.0, 0.0, 0.0, 0.0, 0.0, 0.0, 0.0, 0.0, 0.0, 0.0, 1.694076795896337E9, 0.0, 2023-09-07 16:53:15.896
5.0, 2740.63679464302, -34201.45472305474, -5473.9422171047, -11245.207338953895, 847.5334462563331, 4255.682737312643, 3219.8581957648034, 17306.173420688323, 0.016, 1.01, -0.048, 192.0, 0.0, 0.0, 0.0, 0.0, 0.0, 0.0, 0.0, 0.0, 0.0, 1.694076795896346E9, 0.0, 2023-09-07 16:53:15.896
6.0, 2704.426968625423, -34492.9885259853, -5529.307488120496, -12020.119967474935, 854.3730800596571, 4161.559541411346, 3220.2158236760883, 17259.41357128782, 0.016, 1.01, -0.048, 192.0, 0.0, 0.0, 0.0, 0.0, 0.0, 0.0, 0.0, 0.0, 0.0, 1.694076795896355E9, 0.0, 2023-09-07 16:53:15.896
7.0, 3062.2560456104334, -34314.06281162057, -5210.012818576434, -12476.98962414141, 1242.3770120593324, 4501.5072228321105, 3606.8786510084456, 17154.136854903325, 0.016, 1.01, -0.048, 192.0, 0.0, 0.0, 0.0, 0.0, 0.0, 0.0, 0.0, 0.0, 0.0, 1.694076795896364E9, 0.0, 2023-09-07 16:53:15.896
8.0, 3163.1071165927788, -33815.97653817851, -5123.243346600932, -11489.847182017229, 1255.519837799053, 4617.19985213278, 3616.3557906574956, 17083.773563358016, 0.016, 1.01, -0.048, 192.0, 0.0, 0.0, 0.0, 0.0, 0.0, 0.0, 0.0, 0.0, 0.0, 1.694076795896373E9, 0.0, 2023-09-07 16:53:15.896
9.0, 2808.7425599983408, -34099.44136136072, -5415.179480931697, -11146.792608117177, 904.3292289172684, 4319.452264243635, 3254.6151583928063, 17322.400787162875, 0.014, 1.012, -0.06, 192.0, 0.0, 112.0, 31.0, 160.0, 254.0, 32.0, 0.0, 0.0, 0.0, 1.694076795896383E9, 0.0, 2023-09-07 16:53:15.896
10.0, 2680.5553055471546, -34462.29958084817, -5549.401706385816, -11871.547922080508, 817.0680185637497, 4141.9794132684965, 3158.9943956130023, 17311.64959807987, 0.014, 1.012, -0.06, 192.0, 0.0, 0.0, 0.0, 0.0, 0.0, 0.0, 0.0, 0.0, 0.0, 1.694076795896393E9, 0.0, 2023-09-07 16:53:15.896
11.0, 3012.9704490864815, -34377.47471064028, -5254.045755153389, -12479.716536964957, 1186.162374754235, 4447.192483805715, 3569.9088656793674, 17187.463305886187, 0.014, 1.012, -0.06, 192.0, 0.0, 0.0, 0.0, 0.0, 0.0, 0.0, 0.0, 0.0, 0.0, 1.694076795896403E9, 0.0, 2023-09-07 16:53:15.896
12.0, 3201.06037867789, -33844.3409018923, -5088.53108746184, -11662.514407934477, 1304.2466407116224, 4652.001518249693, 3677.2866460426626, 17087.37219421532, 0.014, 1.012, -0.06, 192.0, 0.0, 0.0, 0.0, 0.0, 0.0, 0.0, 0.0, 0.0, 0.0, 1.694076795896413E9, 0.0, 2023-09-07 16:53:15.896
13.0, 2863.6831478694858, -34019.846799355364, -5365.49155300755, -11093.930732480376, 943.534188691877, 4370.481296835101, 3318.0941126458783, 17270.500036537655, 0.014, 1.012, -0.06, 192.0, 0.0, 0.0, 0.0, 0.0, 0.0, 0.0, 0.0, 0.0, 0.0, 1.694076795896481E9, 0.0, 2023-09-07 16:53:15.896
14.0, 2672.3522153320573, -34426.69325193087, -5557.068354733987, -11733.03416169097, 789.3965589280796, 4139.274852189405, 3166.9963201280025, 17326.04412150909, 0.014, 1.012, -0.06, 192.0, 0.0, 0.0, 0.0, 0.0, 0.0, 0.0, 0.0, 0.0, 0.0, 1.694076795896491E9, 0.0, 2023-09-07 16:53:15.896
15.0, 2952.7995530127946, -34435.58924622408, -5317.457654173095, -12456.22485354243, 1118.7942169659398, 4375.91277073774, 3488.190887950765, 17193.49827688912, 0.014, 1.012, -0.06, 192.0, 0.0, 0.0, 0.0, 0.0, 0.0, 0.0, 0.0, 0.0, 0.0, 1.6940767958965E9, 0.0, 2023-09-07 16:53:15.896
16.0, 3227.9048237687143, -33906.2999375224, -5087.9052386170915, -11869.670375546262, 1327.648917156329, 4655.667204340363, 3687.0096548807214, 17090.34497622788, 0.014, 1.012, -0.06, 192.0, 0.0, 0.0, 0.0, 0.0, 0.0, 0.0, 0.0, 0.0, 0.0, 1.694076795956612E9, 0.0, 2023-09-07 16:53:15.956
17.0, 2950.050288444792, -33935.17839135866, -5303.308999932886, -11080.34087185155, 1019.6865820511082, 4447.550111717, 3391.7207588816595, 17244.393199013855, 0.014, 1.012, -0.06, 192.0, 0.0, 0.0, 0.0, 0.0, 0.0, 0.0, 0.0, 0.0, 0.0, 1.694076795956664E9, 0.0, 2023-09-07 16:53:15.956
18.0, 2682.4999073147665, -34381.69919034233, -5548.351174396417, -11600.309503115357, 786.669646104532, 4158.139724509683, 3169.142087595712, 17363.036258582622, 0.014, 1.012, -0.06, 192.0, 0.0, 0.0, 0.0, 0.0, 0.0, 0.0, 0.0, 0.0, 0.0, 1.694076795956672E9, 0.0, 2023-09-07 16:53:15.956
19.0, 2879.083499799192, -34485.47833984832, -5386.278675350985, -12400.926637760002, 1038.5514543713873, 4303.671932658188, 3436.6254134923715, 17230.669227918297, 0.02, 1.016, -0.062, 192.0, 0.0, 160.0, 31.0, 192.0, 254.0, 16.0, 0.0, 0.0, 0.0, 1.69407679595668E9, 0.0, 2023-09-07 16:53:15.956
20.0, 3219.813492275893, -33999.19378747866, -5089.6710264290605, -12076.803991413593, 1347.832542399471, 4622.653677779875, 3741.7043735628577, 17103.376043245324, 0.02, 1.016, -0.062, 192.0, 0.0, 0.0, 0.0, 0.0, 0.0, 0.0, 0.0, 0.0, 0.0, 1.694076795956688E9, 0.0, 2023-09-07 16:53:15.956
21.0, 2994.9996465444146, -33889.35731522529, -5266.652139026182, -11116.617753102511, 1065.530009928943, 4489.951370948716, 3473.9751784771897, 17197.521590891076, 0.02, 1.016, -0.062, 192.0, 0.0, 0.0, 0.0, 0.0, 0.0, 0.0, 0.0, 0.0, 0.0, 1.694076795956695E9, 0.0, 2023-09-07 16:53:15.956
22.0, 2665.4902297842777, -34347.56807655908, -5552.016860487087, -11488.729594794464, 775.4490703879679, 4162.900646078664, 3176.205238843589, 17354.073209056045, 0.02, 1.016, -0.062, 192.0, 0.0, 0.0, 0.0, 0.0, 0.0, 0.0, 0.0, 0.0, 0.0, 1.694076795956702E9, 0.0, 2023-09-07 16:53:15.956
23.0, 2827.4956735963433, -34494.642555075, -5434.960774774644, -12293.392395185518, 980.14634610967, 4271.150144475716, 3374.0852325064225, 17260.08412362148, 0.02, 1.016, -0.062, 192.0, 0.0, 0.0, 0.0, 0.0, 0.0, 0.0, 0.0, 0.0, 0.0, 1.694076795956709E9, 0.0, 2023-09-07 16:53:15.956
24.0, 3201.8203379893707, -34092.57937581294, -5119.197680854521, -12240.731685248815, 1325.8607775999044, 4630.186215661313, 3707.3273905905953, 17148.459511811678, 0.02, 1.016, -0.062, 192.0, 0.0, 0.0, 0.0, 0.0, 0.0, 0.0, 0.0, 0.0, 0.0, 1.694076795956716E9, 0.0, 2023-09-07 16:53:15.956
25.0, 3076.337644617277, -33835.9366459771, -5219.199385547565, -11195.7429284743, 1135.8933014742497, 4543.908482063828, 3516.532899920094, 17166.273852142556, 0.02, 1.016, -0.062, 192.0, 0.0, 0.0, 0.0, 0.0, 0.0, 0.0, 0.0, 0.0, 0.0, 1.694076795956723E9, 0.0, 2023-09-07 16:53:15.956
26.0, 2710.573698350632, -34280.53519493761, -5524.121883406864, -11371.472343381924, 799.6560096330654, 4202.843213420298, 3209.0623031928903, 17369.83118889704, 0.02, 1.016, -0.062, 192.0, 0.0, 0.0, 0.0, 0.0, 0.0, 0.0, 0.0, 0.0, 0.0, 1.69407679595673E9, 0.0, 2023-09-07 16:53:15.956
27.0, 2761.73684140883, -34513.57448262865, -5493.2764760585405, -12184.65115841045, 906.0056097514165, 4203.446710520591, 3342.5022175910735, 17274.053963906048, 0.02, 1.016, -0.062, 192.0, 0.0, 0.0, 0.0, 0.0, 0.0, 0.0, 0.0, 0.0, 0.0, 1.694076795956737E9, 0.0, 2023-09-07 16:53:15.956
28.0, 3156.3568897672762, -34190.54707176055, -5143.181102655066, -12370.68472751197, 1309.2981349585218, 4572.630473688898, 3731.1319984354973, 17148.928898445236, 0.02, 1.016, -0.062, 192.0, 0.0, 0.0, 0.0, 0.0, 0.0, 0.0, 0.0, 0.0, 0.0, 1.694076795956793E9, 0.0, 2023-09-07 16:53:15.956
29.0, 3115.6767148586173, -33821.65388127016, -5172.752460569437, -11307.658112962023, 1194.9689620696263, 4580.3418255259785, 3599.3908166159176, 17130.91339241426, 0.032, 1.018, -0.066, 192.0, 1.0, 0.0, 31.0, 208.0, 253.0, 240.0, 0.0, 0.0, 0.0, 1.6940767959568E9, 0.0, 2023-09-07 16:53:15.956
30.0, 2737.619309141554, -34227.31569138953, -5491.46598475766, -11279.60667367061, 818.6102889311659, 4231.162873645171, 3242.366402431298, 17344.752531618182, 0.032, 1.018, -0.066, 192.0, 0.0, 0.0, 0.0, 0.0, 0.0, 0.0, 0.0, 0.0, 0.0, 1.694076795956807E9, 0.0, 2023-09-07 16:53:15.956
31.0, 2712.875928029529, -34516.5472646412, -5536.0130114570875, -12060.24134877221, 845.1418095996154, 4158.497352420968, 3256.1574287602225, 17292.874132737415, 0.032, 1.018, -0.066, 192.0, 0.0, 0.0, 0.0, 0.0, 0.0, 0.0, 0.0, 0.0, 0.0, 1.694076796016893E9, 0.0, 2023-09-07 16:53:16.016
32.0, 3089.145194190168, -34306.01618361666, -5207.464719708529, -12467.0430978588, 1245.6850702387178, 4508.659781057809, 3640.652136880414, 17160.372991606357, 0.032, 1.018, -0.066, 192.0, 0.0, 0.0, 0.0, 0.0, 0.0, 0.0, 0.0, 0.0, 0.0, 1.694076796016946E9, 0.0, 2023-09-07 16:53:16.016
33.0, 3157.943863623603, -33838.06006170035, -5150.78069576987, -11473.619815542677, 1224.9202996397376, 4596.457433278255, 3622.1672442158756, 17091.57432217292, 0.032, 1.018, -0.066, 192.0, 0.0, 0.0, 0.0, 0.0, 0.0, 0.0, 0.0, 0.0, 0.0, 1.694076796016956E9, 0.0, 2023-09-07 16:53:16.016
34.0, 2793.2080976019024, -34150.738614885646, -5450.562292404448, -11196.525239530236, 856.8094202052856, 4271.8206968093755, 3279.515001716018, 17310.37554864592, 0.032, 1.018, -0.066, 192.0, 0.0, 0.0, 0.0, 0.0, 0.0, 0.0, 0.0, 0.0, 0.0, 1.694076796016966E9, 0.0, 2023-09-07 16:53:16.016
35.0, 2683.0139974372387, -34498.375296399034, -5567.8642473059, -11934.401027488831, 791.9893612848952, 4117.616011812212, 3215.9913439740353, 17296.830391506006, 0.032, 1.018, -0.066, 192.0, 0.0, 0.0, 0.0, 0.0, 0.0, 0.0, 0.0, 0.0, 0.0, 1.694076796016975E9, 0.0, 2023-09-07 16:53:16.016
36.0, 3019.6759724230737, -34398.17242600589, -5269.937845461112, -12516.28399089384, 1168.6609588457297, 4430.629841164332, 3588.147889154898, 17172.554692334495, 0.032, 1.018, -0.066, 192.0, 0.0, 0.0, 0.0, 0.0, 0.0, 0.0, 0.0, 0.0, 0.0, 1.694076796016985E9, 0.0, 2023-09-07 16:53:16.016
37.0, 3195.0924629083233, -33872.23587897252, -5122.192814611532, -11663.631995157242, 1274.004730463592, 4614.0929596534925, 3669.687052927858, 17072.105952752347, 0.032, 1.018, -0.066, 192.0, 0.0, 0.0, 0.0, 0.0, 0.0, 0.0, 0.0, 0.0, 0.0, 1.694076796016994E9, 0.0, 2023-09-07 16:53:16.016
38.0, 2854.608339620631, -34063.7903289545, -5389.720843997103, -11132.15221549895, 916.9132610456063, 4344.597976755855, 3340.1105809343558, 17277.13850464088, 0.044, 1.018, -0.058, 192.0, 1.0, 96.0, 31.0, 208.0, 254.0, 48.0, 0.0, 0.0, 0.0, 1.694076796017004E9, 0.0, 2023-09-07 16:53:16.017
39.0, 2658.605892492043, -34470.65913327446, -5575.955578798721, -11791.774546119517, 769.7493755518647, 4102.95326744953, 3192.4773088070524, 17306.866324766437, 0.044, 1.018, -0.058, 192.0, 0.0, 0.0, 0.0, 0.0, 0.0, 0.0, 0.0, 0.0, 0.0, 1.694076796017014E9, 0.0, 2023-09-07 16:53:16.017
40.0, 2955.6605763030743, -34455.30348483366, -5317.681171617648, -12485.595045756703, 1112.7815977074622, 4391.648398834276, 3531.597975682971, 17195.55463737901, 0.044, 1.018, -0.058, 192.0, 0.0, 0.0, 0.0, 0.0, 0.0, 0.0, 0.0, 0.0, 0.0, 1.694076796017023E9, 0.0, 2023-09-07 16:53:16.017
41.0, 3227.9495272576246, -33909.29507127942, -5086.273561271854, -11835.941593163205, 1314.930774561259, 4658.863503797473, 3724.2476611432626, 17099.15156354327, 0.044, 1.018, -0.058, 192.0, 0.0, 0.0, 0.0, 0.0, 0.0, 0.0, 0.0, 0.0, 0.0, 1.694076796017032E9, 0.0, 2023-09-07 16:53:16.017
42.0, 2923.2281950984234, -33978.65253432423, -5325.772503110469, -11096.322369137093, 976.3689012967232, 4416.794111346497, 3405.601192188405, 17255.79258868606, 0.044, 1.018, -0.058, 192.0, 0.0, 0.0, 0.0, 0.0, 0.0, 0.0, 0.0, 0.0, 0.0, 1.694076796017042E9, 0.0, 2023-09-07 16:53:16.017
43.0, 2669.871171697518, -34411.2705482567, -5557.046002989531, -11640.944974535105, 766.2401516723814, 4145.198064470061, 3186.2411721040216, 17351.86038635497, 0.044, 1.018, -0.058, 192.0, 0.0, 0.0, 0.0, 0.0, 0.0, 0.0, 0.0, 0.0, 0.0, 1.694076796017051E9, 0.0, 2023-09-07 16:53:16.017
44.0, 2893.008636594848, -34483.13140668051, -5363.234026817564, -12412.638951854582, 1050.1520097436917, 4339.725296464598, 3466.9343789737677, 17217.906381834317, 0.044, 1.018, -0.058, 192.0, 0.0, 0.0, 0.0, 0.0, 0.0, 0.0, 0.0, 0.0, 0.0, 1.694076796017125E9, 0.0, 2023-09-07 16:53:16.017
45.0, 3212.437416605642, -33994.701086843146, -5093.917857875569, -12026.71373208925, 1325.190225266245, 4646.882968769428, 3720.760789008235, 17111.66854043824, 0.044, 1.018, -0.058, 192.0, 0.0, 0.0, 0.0, 0.0, 0.0, 0.0, 0.0, 0.0, 0.0, 1.694076796017135E9, 0.0, 2023-09-07 16:53:16.017
46.0, 2993.3903209436326, -33922.616710974784, -5282.298360144897, -11114.360226912526, 1033.7458293134964, 4476.115641130882, 3448.9188729427906, 17205.232942728155, 0.044, 1.018, -0.058, 192.0, 0.0, 0.0, 0.0, 0.0, 0.0, 0.0, 0.0, 0.0, 0.0, 1.694076796077181E9, 0.0, 2023-09-07 16:53:16.077
47.0, 2708.1150064605486, -34352.03842545014, -5528.279307875551, -11504.688740335554, 778.3771489116132, 4159.212608243538, 3204.971933957569, 17346.160691518868, 0.044, 1.018, -0.058, 192.0, 0.0, 0.0, 0.0, 0.0, 0.0, 0.0, 0.0, 0.0, 0.0, 1.694076796077239E9, 0.0, 2023-09-07 16:53:16.077
48.0, 2850.1826942184803, -34500.87869177803, -5409.233916906585, -12310.670293649471, 1001.0228754309268, 4284.628246382266, 3398.1357095403328, 17258.02776313159, 0.056, 1.016, -0.056, 192.0, 1.0, 192.0, 31.0, 192.0, 254.0, 64.0, 0.0, 0.0, 0.0, 1.694076796077252E9, 0.0, 2023-09-07 16:53:16.077
49.0, 3211.9233264831696, -34076.55317503848, -5095.571886965262, -12187.713347400826, 1334.6003096819295, 4662.082154999037, 3720.5372715636818, 17143.25155535359, 0.056, 1.016, -0.056, 192.0, 0.0, 0.0, 0.0, 0.0, 0.0, 0.0, 0.0, 0.0, 0.0, 1.694076796077265E9, 0.0, 2023-09-07 16:53:16.077
50.0, 3054.477638539987, -33855.717939820046, -5218.551184958361, -11152.447599464369, 1109.272373827979, 4547.104781520937, 3526.0100395691443, 17176.309785402987, 0.056, 1.016, -0.056, 192.0, 0.0, 0.0, 0.0, 0.0, 0.0, 0.0, 0.0, 0.0, 0.0, 1.694076796077278E9, 0.0, 2023-09-07 16:53:16.077
51.0, 2693.2510963977693, -34317.77320120015, -5527.47464507516, -11397.06509078325, 777.3042651777585, 4209.481681523524, 3185.682378492639, 17365.91963361736, 0.056, 1.016, -0.056, 192.0, 0.0, 0.0, 0.0, 0.0, 0.0, 0.0, 0.0, 0.0, 0.0, 1.694076796077289E9, 0.0, 2023-09-07 16:53:16.077
52.0, 2781.8757631630615, -34525.55501765669, -5468.108411801864, -12214.75895819175, 920.668354114098, 4239.768295260465, 3295.7647199350263, 17262.341649811468, 0.056, 1.016, -0.056, 192.0, 0.0, 0.0, 0.0, 0.0, 0.0, 0.0, 0.0, 0.0, 0.0, 1.6940767960773E9, 0.0, 2023-09-07 16:53:16.077
53.0, 3168.560942239874, -34185.070894369, -5128.8759862036695, -12344.846110921635, 1304.2689924560777, 4599.34080831299, 3680.0359106106653, 17135.428444794234, 0.056, 1.016, -0.056, 192.0, 0.0, 0.0, 0.0, 0.0, 0.0, 0.0, 0.0, 0.0, 0.0, 1.694076796077311E9, 0.0, 2023-09-07 16:53:16.077
54.0, 3095.917772760126, -33843.02214896943, -5181.894324051657, -11277.259740502805, 1166.5151913780203, 4562.885113106384, 3567.6289877449262, 17119.4916509976, 0.056, 1.016, -0.056, 192.0, 0.0, 0.0, 0.0, 0.0, 0.0, 0.0, 0.0, 0.0, 0.0, 1.694076796077326E9, 0.0, 2023-09-07 16:53:16.077
55.0, 2717.703904831875, -34257.95993303775, -5490.951894635188, -11294.80585990022, 813.4693877064452, 4241.042344694418, 3248.6695943676946, 17356.353086990486, 0.056, 1.016, -0.056, 192.0, 0.0, 0.0, 0.0, 0.0, 0.0, 0.0, 0.0, 0.0, 0.0, 1.694076796077341E9, 0.0, 2023-09-07 16:53:16.077
56.0, 2719.3355821771124, -34532.52876192675, -5518.2880781040285, -12090.595017742518, 855.31185332678, 4185.498259722979, 3297.9551908916465, 17292.047118192568, 0.056, 1.016, -0.056, 192.0, 0.0, 0.0, 0.0, 0.0, 0.0, 0.0, 0.0, 0.0, 0.0, 1.694076796077354E9, 0.0, 2023-09-07 16:53:16.077
57.0, 3121.242299227989, -34278.16591002535, -5168.237408189465, -12438.79049286729, 1267.8580007383825, 4548.535293166076, 3699.3925213089615, 17181.003651738603, 0.056, 1.016, -0.056, 192.0, 0.0, 0.0, 0.0, 0.0, 0.0, 0.0, 0.0, 0.0, 0.0, 1.694076796077365E9, 0.0, 2023-09-07 16:53:16.077
58.0, 3167.53276199493, -33817.45175331256, -5125.344410579731, -11400.127279773627, 1225.3449827843885, 4616.775168988129, 3666.1554773039197, 17133.90852617127, 0.044, 1.006, -0.048, 192.0, 1.0, 96.0, 31.0, 112.0, 254.0, 128.0, 0.0, 0.0, 0.0, 1.694076796077376E9, 0.0, 2023-09-07 16:53:16.077
59.0, 2780.512306751288, -34167.07774008247, -5435.899548041767, -11194.670044740444, 864.3643098311794, 4299.022769811484, 3283.3371500178755, 17339.723389115738, 0.044, 1.006, -0.048, 192.0, 0.0, 0.0, 0.0, 0.0, 0.0, 0.0, 0.0, 0.0, 0.0, 1.694076796077388E9, 0.0, 2023-09-07 16:53:16.077
60.0, 2697.319113888635, -34504.052639490685, -5537.465874846683, -11951.902443397337, 823.8405971337077, 4170.455535704557, 3226.429608634664, 17312.677778324818, 0.044, 1.006, -0.048, 192.0, 0.0, 0.0, 0.0, 0.0, 0.0, 0.0, 0.0, 0.0, 0.0, 1.694076796077453E9, 0.0, 2023-09-07 16:53:16.077
61.0, 3043.815856434805, -34374.52428037218, -5234.197406077076, -12497.732042995936, 1212.2245087891233, 4495.069920428982, 3594.786357258124, 17181.383631394343, 0.044, 1.006, -0.048, 192.0, 0.0, 0.0, 0.0, 0.0, 0.0, 0.0, 0.0, 0.0, 0.0, 1.694076796077467E9, 0.0, 2023-09-07 16:53:16.077
62.0, 3187.001131415502, -33861.41763465615, -5116.291954075331, -11597.58259029181, 1271.7025007846953, 4638.29989889859, 3683.3886722789616, 17085.33818546989, 0.044, 1.006, -0.048, 192.0, 0.0, 0.0, 0.0, 0.0, 0.0, 0.0, 0.0, 0.0, 0.0, 1.694076796138506E9, 0.0, 2023-09-07 16:53:16.138
63.0, 2821.7736270157848, -34100.76011428358, -5404.517698826516, -11140.86939583652, 905.022132995383, 4344.329755822391, 3331.7286767636156, 17297.61270256194, 0.044, 1.006, -0.048, 192.0, 0.0, 0.0, 0.0, 0.0, 0.0, 0.0, 0.0, 0.0, 0.0, 1.694076796138565E9, 0.0, 2023-09-07 16:53:16.138
64.0, 2653.554398245144, -34490.95451723987, -5570.479401407171, -11824.877479657827, 785.1273757371159, 4146.226244715005, 3191.91851519567, 17320.433833650808, 0.044, 1.006, -0.048, 192.0, 0.0, 0.0, 0.0, 0.0, 0.0, 0.0, 0.0, 0.0, 0.0, 1.694076796138575E9, 0.0, 2023-09-07 16:53:16.138
65.0, 2966.568227597264, -34446.92158066292, -5294.256543428486, -12490.668891748059, 1152.2547784155345, 4430.629841164332, 3554.1061823494656, 17204.60709388341, 0.044, 1.006, -0.048, 192.0, 0.0, 0.0, 0.0, 0.0, 0.0, 0.0, 0.0, 0.0, 0.0, 1.694076796138583E9, 0.0, 2023-09-07 16:53:16.138
66.0, 3211.453939849608, -33903.9530043546, -5096.8906398881245, -11785.314891971933, 1315.422512939276, 4671.000501036704, 3698.1631753639194, 17091.440211706187, 0.044, 1.006, -0.048, 192.0, 0.0, 0.0, 0.0, 0.0, 0.0, 0.0, 0.0, 0.0, 0.0, 1.694076796138591E9, 0.0, 2023-09-07 16:53:16.138
67.0, 2905.995000123382, -33995.90808104373, -5344.726782408569, -11089.505087078225, 971.3844622831897, 4423.901966083285, 3362.328214922931, 17264.35330681244, 0.044, 1.006, -0.048, 192.0, 0.0, 0.0, 0.0, 0.0, 0.0, 0.0, 0.0, 0.0, 0.0, 1.6940767961386E9, 0.0, 2023-09-07 16:53:16.138
68.0, 2647.9888138757724, -34431.32006303311, -5577.296683466039, -11676.461896474588, 759.5793318246999, 4158.2961867208705, 3169.9467503961027, 17342.629115894928, 0.046, 1.012, -0.042, 192.0, 1.0, 112.0, 31.0, 160.0, 254.0, 176.0, 0.0, 0.0, 0.0, 1.694076796138608E9, 0.0, 2023-09-07 16:53:16.138
69.0, 2893.3886162505887, -34480.04686594568, -5365.759773941013, -12440.444521956984, 1064.9041610841944, 4368.424936345213, 3480.144259946854, 17215.090062032945, 0.046, 1.012, -0.042, 192.0, 0.0, 0.0, 0.0, 0.0, 0.0, 0.0, 0.0, 0.0, 0.0, 1.694076796138618E9, 0.0, 2023-09-07 16:53:16.138
70.0, 3216.5054340965075, -33958.49126082555, -5088.173459550555, -11977.428135565298, 1337.7295539056724, 4647.709983314274, 3737.055210716154, 17100.872647866327, 0.046, 1.012, -0.042, 192.0, 0.0, 0.0, 0.0, 0.0, 0.0, 0.0, 0.0, 0.0, 0.0, 1.694076796138626E9, 0.0, 2023-09-07 16:53:16.138
71.0, 2974.8383730457276, -33908.915091623676, -5279.638502554715, -11079.022118928686, 1038.3279369268344, 4484.69871100172, 3436.87128268138, 17211.334968964456, 0.046, 1.012, -0.042, 192.0, 0.0, 0.0, 0.0, 0.0, 0.0, 0.0, 0.0, 0.0, 0.0, 1.694076796138634E9, 0.0, 2023-09-07 16:53:16.138
72.0, 2674.76620373323, -34373.65256233842, -5552.665061076291, -11535.489444194967, 775.4267186435126, 4203.625524476233, 3155.52987522243, 17358.454150969286, 0.046, 1.012, -0.042, 192.0, 0.0, 0.0, 0.0, 0.0, 0.0, 0.0, 0.0, 0.0, 0.0, 1.694076796138643E9, 0.0, 2023-09-07 16:53:16.138
73.0, 2840.0126504913155, -34512.05456400568, -5418.018152477522, -12350.545805757738, 1004.7109132660524, 4319.47461598809, 3365.0104242575676, 17241.956858868227, 0.046, 1.012, -0.042, 192.0, 0.0, 0.0, 0.0, 0.0, 0.0, 0.0, 0.0, 0.0, 0.0, 1.694076796138651E9, 0.0, 2023-09-07 16:53:16.138
74.0, 3193.0361024184353, -34067.45601504517, -5112.0898261177335, -12161.651213365938, 1326.6654404002954, 4646.838265280517, 3692.754053205735, 17107.600522947374, 0.046, 1.012, -0.042, 192.0, 0.0, 0.0, 0.0, 0.0, 0.0, 0.0, 0.0, 0.0, 0.0, 1.694076796138661E9, 0.0, 2023-09-07 16:53:16.138
75.0, 3015.40678923211, -33879.9472308096, -5247.809618450358, -11141.338782470082, 1092.016827108482, 4525.155368465826, 3495.432853154284, 17169.4030963663, 0.046, 1.012, -0.042, 192.0, 0.0, 0.0, 0.0, 0.0, 0.0, 0.0, 0.0, 0.0, 0.0, 1.694076796138672E9, 0.0, 2023-09-07 16:53:16.138
76.0, 2682.678721270409, -34324.16580011437, -5530.782703254546, -11412.174870035038, 780.478212890412, 4217.103626382784, 3210.068131693379, 17378.43661051233, 0.046, 1.012, -0.042, 192.0, 0.0, 0.0, 0.0, 0.0, 0.0, 0.0, 0.0, 0.0, 0.0, 1.694076796138741E9, 0.0, 2023-09-07 16:53:16.138
77.0, 2757.1100303065814, -34546.18567778893, -5484.849868398889, -12252.980441210324, 912.9793540214723, 4238.114266170772, 3330.7899034964926, 17247.79066417106, 0.046, 1.012, -0.042, 192.0, 0.0, 0.0, 0.0, 0.0, 0.0, 0.0, 0.0, 0.0, 0.0, 1.69407679619791E9, 0.0, 2023-09-07 16:53:16.197
78.0, 3139.52602619243, -34192.111693872415, -5152.881759748669, -12335.905413139513, 1293.808376050994, 4598.044407134582, 3696.620904996503, 17121.883287654317, 0.044, 1.016, -0.038, 192.0, 1.0, 96.0, 31.0, 192.0, 254.0, 208.0, 0.0, 0.0, 0.0, 1.69407679619796E9, 0.0, 2023-09-07 16:53:16.197
79.0, 3081.567952819819, -33851.60521884027, -5197.0264550479005, -11237.786559794731, 1157.9544732516376, 4578.553685969554, 3543.600862455471, 17135.316686071954, 0.044, 1.016, -0.038, 192.0, 0.0, 0.0, 0.0, 0.0, 0.0, 0.0, 0.0, 0.0, 0.0, 1.694076796197969E9, 0.0, 2023-09-07 16:53:16.197
80.0, 2715.424026897434, -34272.75678786717, -5500.294923817507, -11302.405453015024, 804.3722277131353, 4247.345536630814, 3210.9622014715915, 17355.10138930099, 0.044, 1.016, -0.038, 192.0, 0.0, 0.0, 0.0, 0.0, 0.0, 0.0, 0.0, 0.0, 0.0, 1.694076796197977E9, 0.0, 2023-09-07 16:53:16.197
81.0, 2707.086826215604, -34562.07776809666, -5528.480473575649, -12128.078893194068, 860.3409958292242, 4194.058977849362, 3245.9873850330578, 17265.582652757486, 0.044, 1.016, -0.038, 192.0, 0.0, 0.0, 0.0, 0.0, 0.0, 0.0, 0.0, 0.0, 0.0, 1.694076796197984E9, 0.0, 2023-09-07 16:53:16.197
82.0, 3093.503784358953, -34308.31841329556, -5185.515306653418, -12446.591251682194, 1262.4041750912877, 4559.286482249079, 3667.429526737872, 17148.504215300585, 0.044, 1.016, -0.038, 192.0, 0.0, 0.0, 0.0, 0.0, 0.0, 0.0, 0.0, 0.0, 0.0, 1.694076796197992E9, 0.0, 2023-09-07 16:53:16.197
83.0, 3110.7146275895393, -33886.76451286847, -5167.008062244423, -11391.991244791896, 1198.3440754823775, 4608.080340395015, 3593.244086890708, 17105.700624668672, 0.044, 1.016, -0.038, 192.0, 0.0, 0.0, 0.0, 0.0, 0.0, 0.0, 0.0, 0.0, 0.0, 1.694076796197999E9, 0.0, 2023-09-07 16:53:16.197
84.0, 2711.7806925512186, -34277.67417164733, -5488.269685300552, -11253.455132657902, 814.0058295733726, 4262.522371115968, 3234.1409604717446, 17319.204487705767, 0.044, 1.016, -0.038, 192.0, 0.0, 0.0, 0.0, 0.0, 0.0, 0.0, 0.0, 0.0, 0.0, 1.694076796198007E9, 0.0, 2023-09-07 16:53:16.198
85.0, 2635.2706712807026, -34613.06209719922, -5572.044023519043, -12030.804101324571, 799.3430852106911, 4140.951233023552, 3224.909690011703, 17272.288176094076, 0.044, 1.016, -0.038, 192.0, 0.0, 0.0, 0.0, 0.0, 0.0, 0.0, 0.0, 0.0, 0.0, 1.694076796198014E9, 0.0, 2023-09-07 16:53:16.198
86.0, 2997.1230622676685, -34460.779662225206, -5241.305260813864, -12532.690171324037, 1199.3499039828664, 4491.65010352732, 3626.0340960066437, 17162.92109047426, 0.044, 1.016, -0.038, 192.0, 0.0, 0.0, 0.0, 0.0, 0.0, 0.0, 0.0, 0.0, 0.0, 1.694076796198022E9, 0.0, 2023-09-07 16:53:16.198
87.0, 3123.499825417975, -33956.23373463556, -5125.031486157356, -11577.15309585966, 1250.6695092522514, 4644.893663512906, 3663.3838609914615, 17099.129211798812, 0.044, 1.016, -0.038, 192.0, 0.0, 0.0, 0.0, 0.0, 0.0, 0.0, 0.0, 0.0, 0.0, 1.694076796198029E9, 0.0, 2023-09-07 16:53:16.198
88.0, 2762.9214838649614, -34251.54498237908, -5427.338829915385, -11192.7924982062, 872.7909174908302, 4303.269601257993, 3288.008664609035, 17307.08984221099, 0.044, 1.018, -0.036000000000000004, 192.0, 1.0, 96.0, 31.0, 208.0, 254.0, 224.0, 0.0, 0.0, 0.0, 1.694076796198037E9, 0.0, 2023-09-07 16:53:16.198
89.0, 2621.9043280964293, -34634.072736987204, -5576.112041009908, -11899.26408520509, 762.2838929037921, 4119.828834513287, 3202.5802973008513, 17313.124813213923, 0.044, 1.018, -0.036000000000000004, 192.0, 0.0, 0.0, 0.0, 0.0, 0.0, 0.0, 0.0, 0.0, 0.0, 1.694076796198045E9, 0.0, 2023-09-07 16:53:16.198
90.0, 2928.9949451678926, -34579.5121287718, -5299.464499886572, -12554.48312216796, 1127.042010669948, 4422.516157927055, 3563.829191187524, 17175.661584813784, 0.044, 1.018, -0.036000000000000004, 192.0, 0.0, 0.0, 0.0, 0.0, 0.0, 0.0, 0.0, 0.0, 0.0, 1.694076796198052E9, 0.0, 2023-09-07 16:53:16.198
91.0, 3135.0780290458238, -34040.29864553197, -5099.885773645136, -11780.66572912523, 1293.741320817628, 4640.803294277584, 3684.72977694628, 17100.71618565514, 0.044, 1.018, -0.036000000000000004, 192.0, 0.0, 0.0, 0.0, 0.0, 0.0, 0.0, 0.0, 0.0, 0.0, 1.694076796198127E9, 0.0, 2023-09-07 16:53:16.198
92.0, 2820.477225837377, -34196.24676659665, -5378.321454324896, -11142.590480159579, 910.4759586424778, 4408.30044845348, 3323.0561999149563, 17268.309565581032, 0.044, 1.018, -0.036000000000000004, 192.0, 0.0, 0.0, 0.0, 0.0, 0.0, 0.0, 0.0, 0.0, 0.0, 1.694076796257495E9, 0.0, 2023-09-07 16:53:16.257
93.0, 2612.673057636387, -34607.295347129744, -5596.519183697604, -11760.28093818199, 741.3626600936246, 4146.561520881834, 3162.749488681494, 17331.56500238955, 0.044, 1.018, -0.036000000000000004, 192.0, 0.0, 0.0, 0.0, 0.0, 0.0, 0.0, 0.0, 0.0, 0.0, 1.694076796257521E9, 0.0, 2023-09-07 16:53:16.257
94.0, 2907.403160024066, -34616.325451889694, -5356.908483136712, -12503.0517581763, 1056.365794702267, 4350.096505891861, 3505.446434670262, 17223.02493131458, 0.044, 1.018, -0.036000000000000004, 192.0, 0.0, 0.0, 0.0, 0.0, 0.0, 0.0, 0.0, 0.0, 0.0, 1.694076796257529E9, 0.0, 2023-09-07 16:53:16.257
95.0, 3207.877660736759, -34097.22853865964, -5101.070416101267, -11979.596254777463, 1302.838480810938, 4688.323102989567, 3713.8093964826344, 17101.00675833306, 0.044, 1.018, -0.036000000000000004, 192.0, 0.0, 0.0, 0.0, 0.0, 0.0, 0.0, 0.0, 0.0, 0.0, 1.694076796257536E9, 0.0, 2023-09-07 16:53:16.257
96.0, 2886.9066103585496, -34084.42098908675, -5318.038799528933, -11136.734323112289, 1000.0617504193486, 4487.895010458828, 3389.127956524844, 17224.74601563764, 0.044, 1.018, -0.036000000000000004, 192.0, 0.0, 0.0, 0.0, 0.0, 0.0, 0.0, 0.0, 0.0, 0.0, 1.694076796257543E9, 0.0, 2023-09-07 16:53:16.257
97.0, 2590.790699814642, -34568.291553055235, -5585.7903463590565, -11629.59028835181, 736.8923112025633, 4171.7966403718765, 3196.210050131089, 17365.696116172807, 0.044, 1.018, -0.036000000000000004, 192.0, 0.0, 0.0, 0.0, 0.0, 0.0, 0.0, 0.0, 0.0, 0.0, 1.69407679625755E9, 0.0, 2023-09-07 16:53:16.257
98.0, 2817.79501650274, -34667.60035367017, -5413.301934397452, -12432.040266041788, 1001.4699103200329, 4311.562098450911, 3470.577713319983, 17242.15802456832, 0.044, 1.012, -0.03, 192.0, 1.0, 96.0, 31.0, 160.0, 255.0, 16.0, 0.0, 0.0, 0.0, 1.694076796257557E9, 0.0, 2023-09-07 16:53:16.257
99.0, 3158.033270601424, -34176.64428670934, -5111.776901695359, -12170.435448936874, 1324.2961554880328, 4623.503044069176, 3730.3720391240167, 17114.641322450796, 0.044, 1.012, -0.03, 192.0, 0.0, 0.0, 0.0, 0.0, 0.0, 0.0, 0.0, 0.0, 0.0, 1.694076796257565E9, 0.0, 2023-09-07 16:53:16.257
100.0, 2995.7149023669845, -34018.68450864369, -5262.47236281304, -11171.670099695933, 1057.013995291471, 4506.066978700993, 3461.7934777490473, 17201.477849659666, 0.044, 1.012, -0.03, 192.0, 0.0, 0.0, 0.0, 0.0, 0.0, 0.0, 0.0, 0.0, 0.0, 1.694076796257572E9, 0.0, 2023-09-07 16:53:16.257
101.0, 2681.225857880814, -34455.57170576712, -5539.768104525579, -11487.142620938137, 768.5423813512781, 4236.50494056999, 3243.8639693098035, 17395.759212465193, 0.044, 1.012, -0.03, 192.0, 0.0, 0.0, 0.0, 0.0, 0.0, 0.0, 0.0, 0.0, 0.0, 1.694076796257579E9, 0.0, 2023-09-07 16:53:16.257
102.0, 2784.3344550531456, -34645.6285888706, -5461.179371020719, -12312.81606111718, 934.6381943986648, 4269.831391552852, 3390.1114332808775, 17273.673984250305, 0.044, 1.012, -0.03, 192.0, 0.0, 0.0, 0.0, 0.0, 0.0, 0.0, 0.0, 0.0, 0.0, 1.694076796257586E9, 0.0, 2023-09-07 16:53:16.257
103.0, 3157.7650496679607, -34271.30392447757, -5148.769038768893, -12316.280581507754, 1276.5751810759523, 4667.06659401257, 3707.729721990791, 17129.996970891592, 0.044, 1.012, -0.03, 192.0, 0.0, 0.0, 0.0, 0.0, 0.0, 0.0, 0.0, 0.0, 0.0, 1.694076796257593E9, 0.0, 2023-09-07 16:53:16.257
104.0, 3021.7323329129617, -33978.36196164632, -5254.403383064674, -11249.811798311686, 1100.2199173235795, 4579.492459236677, 3497.712731088726, 17120.832755664916, 0.044, 1.012, -0.03, 192.0, 0.0, 0.0, 0.0, 0.0, 0.0, 0.0, 0.0, 0.0, 0.0, 1.6940767962576E9, 0.0, 2023-09-07 16:53:16.257
105.0, 2667.747755974264, -34389.52230090169, -5549.2228924301735, -11375.070974239228, 751.4209450985128, 4230.469969567057, 3185.034177903435, 17341.824453094538, 0.044, 1.012, -0.03, 192.0, 0.0, 0.0, 0.0, 0.0, 0.0, 0.0, 0.0, 0.0, 0.0, 1.694076796257606E9, 0.0, 2023-09-07 16:53:16.257
106.0, 2704.6504860699756, -34625.221446182906, -5537.711744035691, -12192.56367594763, 842.0796206092383, 4190.460346992058, 3281.3701965058085, 17257.334859053477, 0.044, 1.012, -0.03, 192.0, 0.0, 0.0, 0.0, 0.0, 0.0, 0.0, 0.0, 0.0, 0.0, 1.694076796257613E9, 0.0, 2023-09-07 16:53:16.257
107.0, 3117.4872061594974, -34317.3485180555, -5175.792297815358, -12433.470777686927, 1262.135954157824, 4625.984087703716, 3670.4470122393386, 17137.998895406592, 0.044, 1.012, -0.03, 192.0, 0.0, 0.0, 0.0, 0.0, 0.0, 0.0, 0.0, 0.0, 0.0, 1.694076796317958E9, 0.0, 2023-09-07 16:53:16.317
108.0, 3120.012953282947, -33895.23582401703, -5169.377347156686, -11344.04675293526, 1188.755177111051, 4663.6914805998185, 3589.913676966867, 17105.544162457485, 0.04, 1.004, -0.026000000000000002, 192.0, 1.0, 64.0, 31.0, 96.0, 255.0, 48.0, 0.0, 0.0, 0.0, 1.694076796318E9, 0.0, 2023-09-07 16:53:16.318
109.0, 2749.73395463633, -34277.83063385852, -5482.190010808708, -11250.594109367623, 822.1195128106491, 4323.0061916120285, 3234.3421261718427, 17332.839051823503, 0.04, 1.004, -0.026000000000000002, 192.0, 0.0, 0.0, 0.0, 0.0, 0.0, 0.0, 0.0, 0.0, 0.0, 1.694076796318009E9, 0.0, 2023-09-07 16:53:16.318
110.0, 2701.0071517237607, -34576.829919437165, -5545.803075528512, -12033.866290314949, 820.8678151211519, 4223.496225297002, 3230.005887747513, 17286.74975475666, 0.04, 1.004, -0.026000000000000002, 192.0, 0.0, 0.0, 0.0, 0.0, 0.0, 0.0, 0.0, 0.0, 0.0, 1.694076796318018E9, 0.0, 2023-09-07 16:53:16.318
111.0, 3069.6768247695954, -34402.97805106379, -5232.610432220749, -12509.399653601606, 1196.8912120927826, 4552.603310656942, 3606.0963399525094, 17153.555709547487, 0.04, 1.004, -0.026000000000000002, 192.0, 0.0, 0.0, 0.0, 0.0, 0.0, 0.0, 0.0, 0.0, 0.0, 1.694076796318026E9, 0.0, 2023-09-07 16:53:16.318
112.0, 3199.8533844773037, -33896.107542050784, -5144.008117199912, -11516.132833496671, 1221.0534478489694, 4692.413472224888, 3625.2070814617973, 17092.222522762124, 0.04, 1.004, -0.026000000000000002, 192.0, 0.0, 0.0, 0.0, 0.0, 0.0, 0.0, 0.0, 0.0, 0.0, 1.694076796318034E9, 0.0, 2023-09-07 16:53:16.318
113.0, 2823.293545638746, -34173.604449463426, -5441.353373688862, -11174.397012519481, 849.1651236015706, 4381.590113829388, 3265.4781061980852, 17301.39014737489, 0.04, 1.004, -0.026000000000000002, 192.0, 0.0, 0.0, 0.0, 0.0, 0.0, 0.0, 0.0, 0.0, 0.0, 1.694076796318042E9, 0.0, 2023-09-07 16:53:16.318
114.0, 2704.2034511808697, -34516.48020940783, -5558.074183234476, -11894.614922358385, 782.3334076802025, 4230.447617822601, 3215.7007712961163, 17310.71082481275, 0.04, 1.004, -0.026000000000000002, 192.0, 0.0, 0.0, 0.0, 0.0, 0.0, 0.0, 0.0, 0.0, 0.0, 1.694076796318049E9, 0.0, 2023-09-07 16:53:16.318
115.0, 3044.4864087684646, -34425.262740285725, -5252.458781297062, -12506.605685544693, 1170.0467670019589, 4548.334127465979, 3612.734808055736, 17202.17075373778, 0.04, 1.004, -0.026000000000000002, 192.0, 0.0, 0.0, 0.0, 0.0, 0.0, 0.0, 0.0, 0.0, 0.0, 1.694076796318057E9, 0.0, 2023-09-07 16:53:16.318
116.0, 3226.6754778236723, -33904.62355668826, -5103.529107991351, -11699.908876408206, 1276.0163874645696, 4730.098513376536, 3691.770576449702, 17099.822115876927, 0.04, 1.004, -0.026000000000000002, 192.0, 0.0, 0.0, 0.0, 0.0, 0.0, 0.0, 0.0, 0.0, 0.0, 1.694076796318065E9, 0.0, 2023-09-07 16:53:16.318
117.0, 2872.132107273592, -34086.052666431984, -5387.753890485035, -11125.469043906814, 907.5255283743774, 4442.520969214555, 3323.1456068927773, 17273.56222552803, 0.036000000000000004, 1.01, -0.028, 192.0, 1.0, 32.0, 31.0, 144.0, 255.0, 32.0, 0.0, 0.0, 0.0, 1.694076796318072E9, 0.0, 2023-09-07 16:53:16.318
118.0, 2676.509639800744, -34486.372409626536, -5576.603779387925, -11759.833903292883, 749.4316398419905, 4220.188167117616, 3157.8321049013266, 17324.658313352862, 0.036000000000000004, 1.01, -0.028, 192.0, 0.0, 0.0, 0.0, 0.0, 0.0, 0.0, 0.0, 0.0, 0.0, 1.694076796318081E9, 0.0, 2023-09-07 16:53:16.318
119.0, 2956.0182042143592, -34495.53662485321, -5336.72485789357, -12492.747603982401, 1076.1023850563033, 4466.5043910151, 3497.422158410807, 17193.54298037803, 0.036000000000000004, 1.01, -0.028, 192.0, 0.0, 0.0, 0.0, 0.0, 0.0, 0.0, 0.0, 0.0, 0.0, 1.694076796318089E9, 0.0, 2023-09-07 16:53:16.318
120.0, 3250.234216479566, -33952.00925493351, -5090.408633996086, -11894.570218869474, 1311.488605915142, 4756.384164855977, 3708.40027432445, 17096.24583676408, 0.036000000000000004, 1.01, -0.028, 192.0, 0.0, 0.0, 0.0, 0.0, 0.0, 0.0, 0.0, 0.0, 0.0, 1.694076796318096E9, 0.0, 2023-09-07 16:53:16.318
121.0, 2957.135791437124, -33986.81092105042, -5322.442093186628, -11089.125107422484, 979.5875524982873, 4533.3808104253785, 3402.1366717978326, 17247.164815326312, 0.036000000000000004, 1.01, -0.028, 192.0, 0.0, 0.0, 0.0, 0.0, 0.0, 0.0, 0.0, 0.0, 0.0, 1.694076796318104E9, 0.0, 2023-09-07 16:53:16.318
122.0, 2697.252058655269, -34421.52999896169, -5558.0294797455645, -11606.858564240762, 749.2528258863481, 4259.884865270241, 3188.7669192274716, 17365.383191750432, 0.036000000000000004, 1.01, -0.028, 192.0, 0.0, 0.0, 0.0, 0.0, 0.0, 0.0, 0.0, 0.0, 0.0, 1.694076796378131E9, 0.0, 2023-09-07 16:53:16.378
123.0, 2889.387653993089, -34522.31401471067, -5397.856878978834, -12413.242448954876, 994.8314422168067, 4413.307239211469, 3429.5399105000392, 17223.94135283725, 0.036000000000000004, 1.01, -0.028, 192.0, 0.0, 0.0, 0.0, 0.0, 0.0, 0.0, 0.0, 0.0, 0.0, 1.694076796378182E9, 0.0, 2023-09-07 16:53:16.378
124.0, 3241.40527741972, -34024.67477615771, -5097.740006177426, -12085.29765430661, 1302.5032046441086, 4746.862321718017, 3722.101893675553, 17113.54608697249, 0.036000000000000004, 1.01, -0.028, 192.0, 0.0, 0.0, 0.0, 0.0, 0.0, 0.0, 0.0, 0.0, 0.0, 1.694076796378191E9, 0.0, 2023-09-07 16:53:16.378
125.0, 3015.3844374876544, -33914.10069633731, -5279.303226387886, -11114.762558312721, 1021.6758873076305, 4583.918104638828, 3444.8285037074693, 17200.583779881454, 0.036000000000000004, 1.01, -0.028, 192.0, 0.0, 0.0, 0.0, 0.0, 0.0, 0.0, 0.0, 0.0, 0.0, 1.694076796378198E9, 0.0, 2023-09-07 16:53:16.378
126.0, 2703.0411604691935, -34365.15889944541, -5551.703936064713, -11484.505115092412, 739.2392443703704, 4271.239551453537, 3174.7970789429046, 17365.986688850724, 0.036000000000000004, 1.01, -0.028, 192.0, 0.0, 0.0, 0.0, 0.0, 0.0, 0.0, 0.0, 0.0, 0.0, 1.694076796378206E9, 0.0, 2023-09-07 16:53:16.378
127.0, 2854.9436157874607, -34509.68527909342, -5427.3611816598395, -12290.374909684053, 951.2455405289579, 4380.606637073354, 3391.0725582924556, 17259.83825443247, 0.038, 1.014, -0.028, 192.0, 1.0, 48.0, 31.0, 176.0, 255.0, 32.0, 0.0, 0.0, 0.0, 1.694076796378213E9, 0.0, 2023-09-07 16:53:16.378
128.0, 3208.5705648148737, -34115.624024346354, -5114.9061459191025, -12243.592708539094, 1300.5138993875862, 4720.889594660949, 3716.9609924508327, 17137.10482562838, 0.038, 1.014, -0.028, 192.0, 0.0, 0.0, 0.0, 0.0, 0.0, 0.0, 0.0, 0.0, 0.0, 1.694076796378221E9, 0.0, 2023-09-07 16:53:16.378
129.0, 3084.6077900657406, -33853.6392275857, -5215.600754690261, -11173.391184018992, 1103.1479958472248, 4641.876178011439, 3510.967315550723, 17169.090171943924, 0.038, 1.014, -0.028, 192.0, 0.0, 0.0, 0.0, 0.0, 0.0, 0.0, 0.0, 0.0, 0.0, 1.694076796378229E9, 0.0, 2023-09-07 16:53:16.378
130.0, 2748.6610709024753, -34273.87437508993, -5500.943124406711, -11338.01178193233, 767.0671662172277, 4311.450339728634, 3213.331486383854, 17371.90990113138, 0.038, 1.014, -0.028, 192.0, 0.0, 0.0, 0.0, 0.0, 0.0, 0.0, 0.0, 0.0, 0.0, 1.694076796378236E9, 0.0, 2023-09-07 16:53:16.378
131.0, 2776.712510193886, -34522.24695947731, -5499.579667994937, -12173.475286182796, 861.4362313075342, 4291.065548785395, 3281.101975572345, 17247.477739748687, 0.038, 1.014, -0.028, 192.0, 0.0, 0.0, 0.0, 0.0, 0.0, 0.0, 0.0, 0.0, 0.0, 1.694076796378244E9, 0.0, 2023-09-07 16:53:16.378
132.0, 3156.8262764008377, -34220.54311281957, -5167.142172711155, -12388.767288776315, 1268.6626635387736, 4661.8139340655725, 3647.447067194828, 17120.564534731453, 0.038, 1.014, -0.028, 192.0, 0.0, 0.0, 0.0, 0.0, 0.0, 0.0, 0.0, 0.0, 0.0, 1.694076796378251E9, 0.0, 2023-09-07 16:53:16.378
133.0, 3129.8700725877375, -33836.18251516611, -5185.962341542523, -11304.707682693921, 1164.2576651880343, 4648.358183903478, 3553.5920922269934, 17090.993176817083, 0.038, 1.014, -0.028, 192.0, 0.0, 0.0, 0.0, 0.0, 0.0, 0.0, 0.0, 0.0, 0.0, 1.694076796378258E9, 0.0, 2023-09-07 16:53:16.378
134.0, 2751.633852915031, -34235.518781604624, -5495.645760970803, -11262.082906017651, 793.285762463303, 4313.976086852084, 3211.3198293828764, 17328.65927561036, 0.038, 1.014, -0.028, 192.0, 0.0, 0.0, 0.0, 0.0, 0.0, 0.0, 0.0, 0.0, 0.0, 1.694076796378265E9, 0.0, 2023-09-07 16:53:16.378
135.0, 2731.070248016149, -34517.44133441941, -5536.258880646095, -12048.014944555158, 816.6880389080095, 4257.917911758174, 3209.6658002931836, 17281.83237097649, 0.038, 1.014, -0.028, 192.0, 0.0, 0.0, 0.0, 0.0, 0.0, 0.0, 0.0, 0.0, 0.0, 1.694076796378272E9, 0.0, 2023-09-07 16:53:16.378
136.0, 3109.6864473445953, -34302.81988415955, -5203.061426050834, -12462.975080367933, 1218.7065146811624, 4602.067721136537, 3613.8747470229564, 17149.10771240088, 0.038, 1.014, -0.028, 192.0, 0.0, 0.0, 0.0, 0.0, 0.0, 0.0, 0.0, 0.0, 0.0, 1.69407679637828E9, 0.0, 2023-09-07 16:53:16.378
137.0, 3189.2139541165775, -33822.436192326095, -5136.810855485303, -11444.160216350581, 1216.5607472134527, 4695.721530404274, 3616.3557906574956, 17085.829923847905, 0.034, 1.014, -0.036000000000000004, 192.0, 1.0, 16.0, 31.0, 176.0, 254.0, 224.0, 0.0, 0.0, 0.0, 1.694076796438426E9, 0.0, 2023-09-07 16:53:16.438
138.0, 2823.964097972405, -34136.99229204563, -5431.362143917339, -11151.06179130814, 850.5509317577996, 4388.116823210338, 3248.222559478588, 17318.131603971913, 0.034, 1.014, -0.036000000000000004, 192.0, 0.0, 0.0, 0.0, 0.0, 0.0, 0.0, 0.0, 0.0, 0.0, 1.694076796438451E9, 0.0, 2023-09-07 16:53:16.438
139.0, 2719.15676822147, -34478.169319411434, -5543.634956316347, -11892.02212000157, 790.8941258065851, 4232.12399865675, 3182.7990034579043, 17303.938246242793, 0.034, 1.014, -0.036000000000000004, 192.0, 0.0, 0.0, 0.0, 0.0, 0.0, 0.0, 0.0, 0.0, 0.0, 1.694076796438482E9, 0.0, 2023-09-07 16:53:16.438
140.0, 3049.1355716151684, -34379.21814670779, -5252.302319085875, -12495.653330761592, 1165.3529006663443, 4538.588766883465, 3549.8817026474126, 17170.699497544705, 0.034, 1.014, -0.036000000000000004, 192.0, 0.0, 0.0, 0.0, 0.0, 0.0, 0.0, 0.0, 0.0, 0.0, 1.69407679643849E9, 0.0, 2023-09-07 16:53:16.438
141.0, 3222.518053354985, -33854.8909252752, -5105.741930692427, -11633.881823287229, 1264.5275908145418, 4721.224870827779, 3652.073878297076, 17077.04568827697, 0.034, 1.014, -0.036000000000000004, 192.0, 0.0, 0.0, 0.0, 0.0, 0.0, 0.0, 0.0, 0.0, 0.0, 1.694076796438497E9, 0.0, 2023-09-07 16:53:16.438
142.0, 2869.0699182832145, -34062.96331440965, -5387.530373040482, -11102.849078518044, 894.2485921679249, 4432.038001065016, 3309.84631894187, 17269.94124292627, 0.034, 1.014, -0.036000000000000004, 192.0, 0.0, 0.0, 0.0, 0.0, 0.0, 0.0, 0.0, 0.0, 0.0, 1.694076796438504E9, 0.0, 2023-09-07 16:53:16.438
143.0, 2677.9625031903392, -34466.859336717054, -5572.513410152604, -11771.076830753904, 745.8553607291414, 4205.346608799292, 3164.336462537821, 17305.0334817211, 0.034, 1.014, -0.036000000000000004, 192.0, 0.0, 0.0, 0.0, 0.0, 0.0, 0.0, 0.0, 0.0, 0.0, 1.694076796438512E9, 0.0, 2023-09-07 16:53:16.438
144.0, 2963.8636665181716, -34461.15964188095, -5319.379904196251, -12483.47163003345, 1088.5746584623646, 4458.524818244555, 3516.1305685198986, 17182.702384317206, 0.034, 1.014, -0.036000000000000004, 192.0, 0.0, 0.0, 0.0, 0.0, 0.0, 0.0, 0.0, 0.0, 0.0, 1.694076796438519E9, 0.0, 2023-09-07 16:53:16.438
145.0, 3244.0874867543566, -33906.59051020032, -5080.372700735653, -11826.553860491975, 1306.459463412698, 4730.947879665838, 3703.594649266559, 17076.88922606578, 0.034, 1.014, -0.036000000000000004, 192.0, 0.0, 0.0, 0.0, 0.0, 0.0, 0.0, 0.0, 0.0, 0.0, 1.694076796438526E9, 0.0, 2023-09-07 16:53:16.438
146.0, 2947.9045209770825, -33959.13946141475, -5309.679247102648, -11055.441028528337, 976.9500466525611, 4509.576202580476, 3382.7577093550813, 17252.66334446232, 0.034, 1.014, -0.036000000000000004, 192.0, 0.0, 0.0, 0.0, 0.0, 0.0, 0.0, 0.0, 0.0, 0.0, 1.694076796438534E9, 0.0, 2023-09-07 16:53:16.438
147.0, 2699.263715656247, -34394.52909165968, -5538.0693719469755, -11604.82455549533, 767.4247941285126, 4247.703164542099, 3169.164439340167, 17366.47842722874, 0.032, 1.012, -0.036000000000000004, 192.0, 1.0, 0.0, 31.0, 160.0, 254.0, 224.0, 0.0, 0.0, 0.0, 1.694076796438541E9, 0.0, 2023-09-07 16:53:16.438
148.0, 2930.3584015796664, -34463.506575048756, -5342.446904474128, -12378.440782837963, 1052.9683295450604, 4429.735771386119, 3450.0364601655556, 17248.774140927093, 0.032, 1.012, -0.036000000000000004, 192.0, 0.0, 0.0, 0.0, 0.0, 0.0, 0.0, 0.0, 0.0, 0.0, 1.694076796438548E9, 0.0, 2023-09-07 16:53:16.438
149.0, 3232.30811742641, -33986.162720461216, -5084.172497293055, -12009.860516769948, 1313.746132105128, 4730.7243622212845, 3713.3176581046177, 17122.039749865504, 0.032, 1.012, -0.036000000000000004, 192.0, 0.0, 0.0, 0.0, 0.0, 0.0, 0.0, 0.0, 0.0, 0.0, 1.694076796438556E9, 0.0, 2023-09-07 16:53:16.438
150.0, 2998.508870423898, -33901.650774675705, -5266.987415193012, -11082.978377697274, 1029.364887400256, 4548.9376245662725, 3432.1327128568546, 17212.474907931675, 0.032, 1.012, -0.036000000000000004, 192.0, 0.0, 0.0, 0.0, 0.0, 0.0, 0.0, 0.0, 0.0, 0.0, 1.694076796438563E9, 0.0, 2023-09-07 16:53:16.438
151.0, 2714.7311228193194, -34334.67112000837, -5516.0529036584985, -11468.970652695973, 772.4762883754121, 4258.499057114012, 3175.042948131913, 17381.431744269343, 0.032, 1.012, -0.036000000000000004, 192.0, 0.0, 0.0, 0.0, 0.0, 0.0, 0.0, 0.0, 0.0, 0.0, 1.69407679643857E9, 0.0, 2023-09-07 16:53:16.438
