%OpenBCI Raw EXG Data
%Number of channels = 8
%Sample Rate = 250 Hz
%Board = OpenBCI_GUI$BoardCytonSerial
Sample Index, EXG Channel 0, EXG Channel 1, EXG Channel 2, EXG Channel 3, EXG Channel 4, EXG Channel 5, EXG Channel 6, EXG Channel 7, Accel Channel 0, Accel Channel 1, Accel Channel 2, Other, Other, Other, Other, Other, Other, Other, Analog Channel 0, Analog Channel 1, Analog Channel 2, Timestamp, Other, Timestamp (Formatted)
0.0, 0.0, 0.0, 0.0, 0.0, 0.0, 0.0, 0.0, 0.0, 0.0, 0.0, 0.0, 192.0, 0.0, 0.0, 0.0, 0.0, 0.0, 0.0, 0.0, 0.0, 0.0, 1.694076922623104E9, 0.0, 2023-09-07 16:55:22.623
1.0, 6643.296080028544, -31897.34749762386, -4272.1112694872945, -7244.62506110967, 8880.549237793593, 9340.525786939357, 4017.7484175859, 21286.281500611487, -0.01, 1.0, -0.058, 192.0, 255.0, 176.0, 31.0, 64.0, 254.0, 48.0, 0.0, 0.0, 0.0, 1.69407692268711E9, 0.0, 2023-09-07 16:55:22.687
2.0, 7285.01466334041, -31413.141657488544, -3841.7284300003566, -8011.87104128254, 9575.75554558701, 9896.39131979839, 4649.63223333743, 20351.06216085698, -0.01, 1.0, -0.058, 192.0, 0.0, 0.0, 0.0, 0.0, 0.0, 0.0, 0.0, 0.0, 0.0, 1.694076922687147E9, 0.0, 2023-09-07 16:55:22.687
3.0, 7293.77654716689, -31249.124556675502, -3676.6831489423694, -7282.980654594977, 9539.925699225152, 10082.626054600007, 4687.473736700265, 20636.091606151058, -0.01, 1.0, -0.058, 192.0, 0.0, 0.0, 0.0, 0.0, 0.0, 0.0, 0.0, 0.0, 0.0, 1.694076922687161E9, 0.0, 2023-09-07 16:55:22.687
4.0, 6982.90848528248, -31552.393025445108, -3907.554317421236, -7243.57452912027, 9247.475474771914, 9782.062146909493, 4388.742672055087, 21051.454073364028, -0.01, 1.0, -0.058, 192.0, 0.0, 0.0, 0.0, 0.0, 0.0, 0.0, 0.0, 0.0, 0.0, 1.694076922687173E9, 0.0, 2023-09-07 16:55:22.687
5.0, 6628.588632176952, -31880.248413115554, -4233.912138213174, -7221.267488153874, 8944.8105031026, 9409.033883694874, 4024.7445136004108, 21321.306684172952, -0.01, 1.0, -0.058, 192.0, 0.0, 0.0, 0.0, 0.0, 0.0, 0.0, 0.0, 0.0, 0.0, 1.694076922687185E9, 0.0, 2023-09-07 16:55:22.687
6.0, 7232.398656892617, -31467.858727915136, -3885.5378491327588, -8012.5639453606545, 9544.664269049677, 9866.57409269501, 4633.382515118422, 20452.941412084274, -0.01, 1.0, -0.058, 192.0, 0.0, 0.0, 0.0, 0.0, 0.0, 0.0, 0.0, 0.0, 0.0, 1.694076922687198E9, 0.0, 2023-09-07 16:55:22.687
7.0, 7346.325498381317, -31190.31711701359, -3646.016555549688, -7308.215774085018, 9617.821528651897, 10066.398688125455, 4761.122734680502, 20575.898358332917, -0.01, 1.0, -0.058, 192.0, 0.0, 0.0, 0.0, 0.0, 0.0, 0.0, 0.0, 0.0, 0.0, 1.69407692268721E9, 0.0, 2023-09-07 16:55:22.687
8.0, 7030.182424805454, -31516.496123849887, -3886.7001398444345, -7229.872909769168, 9301.097309720197, 9735.771684142552, 4434.094361554904, 21030.063453920302, -0.024, 0.98, -0.06, 192.0, 255.0, 64.0, 30.0, 160.0, 254.0, 32.0, 0.0, 0.0, 0.0, 1.694076922687222E9, 0.0, 2023-09-07 16:55:22.687
9.0, 6674.923798432804, -31836.640159683247, -4188.202820802071, -7188.030444148832, 8943.402343201917, 9404.921162715098, 4047.8785691116536, 21343.010228039057, -0.024, 0.98, -0.06, 192.0, 0.0, 0.0, 0.0, 0.0, 0.0, 0.0, 0.0, 0.0, 0.0, 1.694076922687236E9, 0.0, 2023-09-07 16:55:22.687
10.0, 7107.6088675986375, -31574.744769900415, -3991.5745248287353, -7953.354174298546, 9415.806462264833, 9755.888254152329, 4443.035059337028, 20575.764247866184, -0.024, 0.98, -0.06, 192.0, 0.0, 0.0, 0.0, 0.0, 0.0, 0.0, 0.0, 0.0, 0.0, 1.694076922687248E9, 0.0, 2023-09-07 16:55:22.687
11.0, 7375.740394084501, -31175.69907613982, -3635.824160078068, -7418.365170760771, 9641.067342885417, 10112.085653792103, 4749.544531052653, 20474.24262455018, -0.024, 0.98, -0.06, 192.0, 0.0, 0.0, 0.0, 0.0, 0.0, 0.0, 0.0, 0.0, 0.0, 1.694076922687264E9, 0.0, 2023-09-07 16:55:22.687
12.0, 7092.49908834685, -31450.580829451184, -3836.2299008643513, -7196.457051808483, 9331.875661835154, 9822.98819100716, 4508.212746168702, 20984.510598720386, -0.024, 0.98, -0.06, 192.0, 0.0, 0.0, 0.0, 0.0, 0.0, 0.0, 0.0, 0.0, 0.0, 1.694076922687276E9, 0.0, 2023-09-07 16:55:22.687
13.0, 6738.290993963599, -31754.542202298904, -4117.168976923105, -7156.402725744573, 8975.477096495282, 9507.448614531591, 4145.041602258873, 21336.21529772464, -0.024, 0.98, -0.06, 192.0, 0.0, 0.0, 0.0, 0.0, 0.0, 0.0, 0.0, 0.0, 0.0, 1.694076922687288E9, 0.0, 2023-09-07 16:55:22.687
14.0, 6998.62176163456, -31649.93603824807, -4059.9485111175195, -7838.332097331536, 9313.860155804177, 9660.289843116982, 4341.044049387461, 20764.904709446993, -0.024, 0.98, -0.06, 192.0, 0.0, 0.0, 0.0, 0.0, 0.0, 0.0, 0.0, 0.0, 0.0, 1.694076922687301E9, 0.0, 2023-09-07 16:55:22.687
15.0, 7376.589760373803, -31186.807893134108, -3651.8727125969785, -7543.020849588019, 9668.984671710095, 10076.479324874797, 4706.137443320446, 20412.52945810908, -0.024, 0.98, -0.06, 192.0, 0.0, 0.0, 0.0, 0.0, 0.0, 0.0, 0.0, 0.0, 0.0, 1.694076922687313E9, 0.0, 2023-09-07 16:55:22.687
16.0, 7068.761535735314, -31464.148338335555, -3851.4514388384155, -7203.430796078539, 9354.070944079274, 9804.235077409157, 4455.21676006517, 20896.9811674334, -0.024, 0.98, -0.06, 192.0, 0.0, 0.0, 0.0, 0.0, 0.0, 0.0, 0.0, 0.0, 0.0, 1.694076922746641E9, 0.0, 2023-09-07 16:55:22.746
17.0, 6747.634023145917, -31763.974638459047, -4105.836642484265, -7230.319944658273, 9034.485701857293, 9495.378672525725, 4199.848079663287, 21208.005691529, -0.024, 0.98, -0.06, 192.0, 0.0, 0.0, 0.0, 0.0, 0.0, 0.0, 0.0, 0.0, 0.0, 1.694076922746673E9, 0.0, 2023-09-07 16:55:22.746
18.0, 6874.994263052257, -31759.124309912244, -4147.34383193777, -7727.95918321123, 9183.728299585378, 9488.181410811116, 4292.2501912415255, 20877.825722435206, -0.014, 1.01, -0.052000000000000005, 192.0, 255.0, 144.0, 31.0, 144.0, 254.0, 96.0, 0.0, 0.0, 0.0, 1.694076922746688E9, 0.0, 2023-09-07 16:55:22.746
19.0, 7384.994016288998, -31215.440477781354, -3677.9795501207773, -7635.51236814408, 9661.563892550934, 10087.56579012463, 4788.145993726968, 20393.485771833155, -0.014, 1.01, -0.052000000000000005, 192.0, 0.0, 0.0, 0.0, 0.0, 0.0, 0.0, 0.0, 0.0, 0.0, 1.694076922746703E9, 0.0, 2023-09-07 16:55:22.746
20.0, 7131.033495787799, -31391.773389789272, -3798.0531213346867, -7120.327010193707, 9378.590807746747, 9902.850973945973, 4561.164028783325, 20897.674071511516, -0.014, 1.01, -0.052000000000000005, 192.0, 0.0, 0.0, 0.0, 0.0, 0.0, 0.0, 0.0, 0.0, 0.0, 1.694076922746717E9, 0.0, 2023-09-07 16:55:22.746
21.0, 6817.304410613109, -31696.002983570455, -4033.1711212600617, -7217.959429974489, 9094.053100830686, 9574.481496153057, 4250.69829829911, 21183.821104028357, -0.014, 1.01, -0.052000000000000005, 192.0, 0.0, 0.0, 0.0, 0.0, 0.0, 0.0, 0.0, 0.0, 0.0, 1.694076922746731E9, 0.0, 2023-09-07 16:55:22.746
22.0, 6806.597925019018, -31805.392420934728, -4160.933692566597, -7579.633007005812, 9106.570077725659, 9455.145532506172, 4197.411739517658, 21021.145107882632, -0.014, 1.01, -0.052000000000000005, 192.0, 0.0, 0.0, 0.0, 0.0, 0.0, 0.0, 0.0, 0.0, 0.0, 1.694076922746745E9, 0.0, 2023-09-07 16:55:22.746
23.0, 7351.891082750689, -31283.881519303504, -3732.3166408916286, -7734.910575736831, 9629.846767168852, 10071.696051561363, 4727.416304041899, 20360.606355739397, -0.014, 1.01, -0.052000000000000005, 192.0, 0.0, 0.0, 0.0, 0.0, 0.0, 0.0, 0.0, 0.0, 0.0, 1.694076922746758E9, 0.0, 2023-09-07 16:55:22.746
24.0, 7137.202577257464, -31391.818093278183, -3800.332999269128, -7145.450370961473, 9417.48284309898, 9936.356238884478, 4549.339955966468, 20780.550930565707, -0.014, 1.01, -0.052000000000000005, 192.0, 0.0, 0.0, 0.0, 0.0, 0.0, 0.0, 0.0, 0.0, 0.0, 1.69407692274677E9, 0.0, 2023-09-07 16:55:22.746
25.0, 6871.105059517034, -31676.46755891652, -3999.3752836436374, -7269.01081431041, 9146.602052045113, 9648.644584255766, 4316.837110142364, 21097.051632052855, -0.014, 1.01, -0.052000000000000005, 192.0, 0.0, 0.0, 0.0, 0.0, 0.0, 0.0, 0.0, 0.0, 0.0, 1.694076922746781E9, 0.0, 2023-09-07 16:55:22.746
26.0, 6753.311366237565, -31834.181467793165, -4179.083309064306, -7468.701299274123, 9032.36228613404, 9461.96281456504, 4177.7869078858985, 21128.1876120791, -0.014, 1.01, -0.052000000000000005, 192.0, 0.0, 0.0, 0.0, 0.0, 0.0, 0.0, 0.0, 0.0, 0.0, 1.694076922746794E9, 0.0, 2023-09-07 16:55:22.746
27.0, 7314.2283933434965, -31328.361490769566, -3771.4768971773265, -7790.521715941634, 9592.474650439579, 9980.4562306948, 4683.092794787025, 20396.123277678882, -0.012, 1.028, -0.042, 192.0, 255.0, 160.0, 32.0, 32.0, 254.0, 176.0, 0.0, 0.0, 0.0, 1.694076922746805E9, 0.0, 2023-09-07 16:55:22.746
28.0, 7202.4696710669605, -31307.552016681675, -3738.396315383472, -7129.9829637984, 9447.836512069287, 9950.97427975825, 4588.701377952263, 20730.930057874928, -0.012, 1.028, -0.042, 192.0, 0.0, 0.0, 0.0, 0.0, 0.0, 0.0, 0.0, 0.0, 0.0, 1.694076922746816E9, 0.0, 2023-09-07 16:55:22.746
29.0, 6914.51214724924, -31624.119773402188, -3966.9205506945314, -7270.709546889013, 9186.142287986551, 9677.455982858657, 4339.568834253411, 21068.575509616796, -0.012, 1.028, -0.042, 192.0, 0.0, 0.0, 0.0, 0.0, 0.0, 0.0, 0.0, 0.0, 0.0, 1.694076922746827E9, 0.0, 2023-09-07 16:55:22.746
30.0, 6714.1511099518675, -31849.69357844515, -4183.553657955367, -7394.895839082699, 8999.326407829096, 9491.824745157332, 4159.056146032351, 21195.689880334125, -0.012, 1.028, -0.042, 192.0, 0.0, 0.0, 0.0, 0.0, 0.0, 0.0, 0.0, 0.0, 0.0, 1.694076922746837E9, 0.0, 2023-09-07 16:55:22.746
31.0, 7241.182892463553, -31411.867608054592, -3837.9286334429544, -7825.099864613994, 9550.967460986074, 9875.291273032579, 4677.281341228645, 20476.075467595514, -0.012, 1.028, -0.042, 192.0, 0.0, 0.0, 0.0, 0.0, 0.0, 0.0, 0.0, 0.0, 0.0, 1.694076922806993E9, 0.0, 2023-09-07 16:55:22.806
32.0, 7248.469561155983, -31271.811577297638, -3709.026123169199, -7178.866228922157, 9529.286268864425, 9921.313514866057, 4672.989806293226, 20682.20325496236, -0.012, 1.028, -0.042, 192.0, 0.0, 0.0, 0.0, 0.0, 0.0, 0.0, 0.0, 0.0, 0.0, 1.694076922807059E9, 0.0, 2023-09-07 16:55:22.807
33.0, 7005.841375093624, -31539.00433051638, -3895.1267475040854, -7219.814624764279, 9265.803905225266, 9751.797884917009, 4437.536530201021, 21054.292744909853, -0.012, 1.028, -0.042, 192.0, 0.0, 0.0, 0.0, 0.0, 0.0, 0.0, 0.0, 0.0, 0.0, 1.694076922807069E9, 0.0, 2023-09-07 16:55:22.807
34.0, 6738.559214897063, -31807.985223291544, -4143.476980147002, -7317.73761722298, 9004.422605564905, 9556.264824421982, 4173.897704350675, 21234.336046497352, -0.012, 1.028, -0.042, 192.0, 0.0, 0.0, 0.0, 0.0, 0.0, 0.0, 0.0, 0.0, 0.0, 1.694076922807077E9, 0.0, 2023-09-07 16:55:22.807
35.0, 7141.292946492786, -31514.260949404354, -3925.011029840831, -7816.516794743156, 9454.854959828253, 9832.46533065621, 4557.163066525825, 20573.193797253825, -0.012, 1.028, -0.042, 192.0, 0.0, 0.0, 0.0, 0.0, 0.0, 0.0, 0.0, 0.0, 0.0, 1.694076922807085E9, 0.0, 2023-09-07 16:55:22.807
36.0, 7274.218770768496, -31244.408338595433, -3692.105852616531, -7246.189683221542, 9572.827467063364, 10045.544510548652, 4729.874995931983, 20596.149038809424, -0.012, 1.028, -0.042, 192.0, 0.0, 0.0, 0.0, 0.0, 0.0, 0.0, 0.0, 0.0, 0.0, 1.694076922807093E9, 0.0, 2023-09-07 16:55:22.807
37.0, 7010.267020495775, -31531.47179263494, -3888.488279400859, -7217.355932874195, 9309.635676102123, 9764.605434489898, 4494.824051239973, 21009.87982867716, -0.034, 1.002, -0.018000000000000002, 192.0, 254.0, 240.0, 31.0, 80.0, 255.0, 112.0, 0.0, 0.0, 0.0, 1.694076922807101E9, 0.0, 2023-09-07 16:55:22.807
38.0, 6759.81572387406, -31775.686952553628, -4097.164165635606, -7309.422768285605, 9058.670289357935, 9539.612774802777, 4255.995661735018, 21241.510956467504, -0.034, 1.002, -0.018000000000000002, 192.0, 0.0, 0.0, 0.0, 0.0, 0.0, 0.0, 0.0, 0.0, 0.0, 1.69407692280711E9, 0.0, 2023-09-07 16:55:22.807
39.0, 7045.91805290199, -31594.101380598713, -3994.904934752576, -7778.787050102598, 9399.154412645628, 9724.439349703713, 4496.522783818577, 20719.798889136182, -0.034, 1.002, -0.018000000000000002, 192.0, 0.0, 0.0, 0.0, 0.0, 0.0, 0.0, 0.0, 0.0, 0.0, 1.694076922807118E9, 0.0, 2023-09-07 16:55:22.807
40.0, 7331.863919718733, -31211.46186726831, -3665.44022148135, -7328.913489450632, 9645.180063865193, 10050.75246700674, 4768.699976050852, 20540.247325926703, -0.034, 1.002, -0.018000000000000002, 192.0, 0.0, 0.0, 0.0, 0.0, 0.0, 0.0, 0.0, 0.0, 0.0, 1.694076922807126E9, 0.0, 2023-09-07 16:55:22.807
41.0, 7048.4438000254395, -31482.074437388714, -3853.3736888615717, -7163.018842103344, 9356.41787724708, 9813.511051358111, 4511.386693881356, 20974.988755582424, -0.034, 1.002, -0.018000000000000002, 192.0, 0.0, 0.0, 0.0, 0.0, 0.0, 0.0, 0.0, 0.0, 0.0, 1.694076922807134E9, 0.0, 2023-09-07 16:55:22.807
42.0, 6809.324837842565, -31740.639417247705, -4053.578263947757, -7308.863974674222, 9109.431101015938, 9598.599028420333, 4284.918819060185, 21198.752069324502, -0.034, 1.002, -0.018000000000000002, 192.0, 0.0, 0.0, 0.0, 0.0, 0.0, 0.0, 0.0, 0.0, 0.0, 1.694076922807142E9, 0.0, 2023-09-07 16:55:22.807
43.0, 7007.920087327968, -31635.74268051895, -4013.0545512502854, -7689.290665303549, 9320.297458207306, 9680.898151504774, 4455.127353087349, 20851.920050611505, -0.034, 1.002, -0.018000000000000002, 192.0, 0.0, 0.0, 0.0, 0.0, 0.0, 0.0, 0.0, 0.0, 0.0, 1.69407692280715E9, 0.0, 2023-09-07 16:55:22.807
44.0, 7353.478056607015, -31197.69319268384, -3665.06024182561, -7407.077539810842, 9646.834092954885, 10055.781609509184, 4811.011828304748, 20506.943226688294, -0.034, 1.002, -0.018000000000000002, 192.0, 0.0, 0.0, 0.0, 0.0, 0.0, 0.0, 0.0, 0.0, 0.0, 1.694076922807157E9, 0.0, 2023-09-07 16:55:22.807
45.0, 7069.476791557884, -31449.954980606435, -3846.109371913597, -7119.74586483787, 9367.571397730278, 9852.917176832816, 4528.306964434024, 20935.023836496333, -0.034, 1.002, -0.018000000000000002, 192.0, 0.0, 0.0, 0.0, 0.0, 0.0, 0.0, 0.0, 0.0, 0.0, 1.694076922807165E9, 0.0, 2023-09-07 16:55:22.807
46.0, 6843.679469070372, -31721.46162050505, -4032.835845093232, -7338.7035535220575, 9156.570930072181, 9628.706828201632, 4271.775993320464, 21137.75415870597, -0.034, 1.002, -0.018000000000000002, 192.0, 0.0, 0.0, 0.0, 0.0, 0.0, 0.0, 0.0, 0.0, 0.0, 1.694076922866411E9, 0.0, 2023-09-07 16:55:22.866
47.0, 6912.6122489705385, -31715.94073962459, -4070.453831011514, -7642.441408925225, 9240.837006668688, 9610.177232048181, 4321.016886355506, 20948.56899363625, -0.032, 0.996, -0.012, 192.0, 255.0, 0.0, 31.0, 32.0, 255.0, 160.0, 0.0, 0.0, 0.0, 1.694076922866436E9, 0.0, 2023-09-07 16:55:22.866
48.0, 7318.475224790004, -31254.265457900223, -3720.917251219422, -7536.091808806874, 9640.843825440863, 10007.45713799681, 4734.680620989874, 20443.553679413042, -0.032, 0.996, -0.012, 192.0, 0.0, 0.0, 0.0, 0.0, 0.0, 0.0, 0.0, 0.0, 0.0, 1.694076922866479E9, 0.0, 2023-09-07 16:55:22.866
49.0, 7090.599190068149, -31419.55660814722, -3825.7692844592675, -7110.760463566836, 9400.875496968687, 9826.072731741993, 4544.310813464023, 20839.89481209455, -0.032, 0.996, -0.012, 192.0, 0.0, 0.0, 0.0, 0.0, 0.0, 0.0, 0.0, 0.0, 0.0, 1.694076922866487E9, 0.0, 2023-09-07 16:55:22.866
50.0, 6883.487925945274, -31677.36162869473, -3991.9545044844754, -7342.123370423719, 9176.978072759875, 9630.80789218043, 4357.830209473397, 21109.546257203372, -0.032, 0.996, -0.012, 192.0, 0.0, 0.0, 0.0, 0.0, 0.0, 0.0, 0.0, 0.0, 0.0, 1.694076922866495E9, 0.0, 2023-09-07 16:55:22.866
51.0, 6858.163399477411, -31748.842507462803, -4085.47420328548, -7571.496972024081, 9177.603921604625, 9551.258033663993, 4315.987743853062, 21098.124515786712, -0.032, 0.996, -0.012, 192.0, 0.0, 0.0, 0.0, 0.0, 0.0, 0.0, 0.0, 0.0, 0.0, 1.694076922866503E9, 0.0, 2023-09-07 16:55:22.866
52.0, 7309.668637474613, -31278.785321567695, -3740.206806684352, -7601.291847383005, 9644.19658710916, 9973.817762591572, 4741.788475726661, 20521.42715709533, -0.032, 0.996, -0.012, 192.0, 0.0, 0.0, 0.0, 0.0, 0.0, 0.0, 0.0, 0.0, 0.0, 1.69407692286651E9, 0.0, 2023-09-07 16:55:22.866
53.0, 7144.578652927716, -31353.93188642644, -3771.946283810888, -7075.087079416166, 9472.06580305884, 9913.57981128452, 4591.227125075713, 20838.866631849603, -0.032, 0.996, -0.012, 192.0, 0.0, 0.0, 0.0, 0.0, 0.0, 0.0, 0.0, 0.0, 0.0, 1.694076922866518E9, 0.0, 2023-09-07 16:55:22.866
54.0, 6890.975760337801, -31666.655143100637, -3993.7202922964448, -7344.157379169153, 9214.529003444792, 9686.44138412969, 4370.146020668271, 21048.771864029393, -0.032, 0.996, -0.012, 192.0, 0.0, 0.0, 0.0, 0.0, 0.0, 0.0, 0.0, 0.0, 0.0, 1.694076922866525E9, 0.0, 2023-09-07 16:55:22.866
55.0, 6808.96720993128, -31791.936670772633, -4113.52564257689, -7535.711829151133, 9140.52237755327, 9536.50588232349, 4275.151106733216, 21128.075853356822, -0.032, 0.996, -0.012, 192.0, 0.0, 0.0, 0.0, 0.0, 0.0, 0.0, 0.0, 0.0, 0.0, 1.694076922866533E9, 0.0, 2023-09-07 16:55:22.866
56.0, 7253.275186213874, -31348.813336946172, -3809.8771941515442, -7670.716365661188, 9581.142316000738, 9900.347578566978, 4701.421225240377, 20543.77890155064, -0.032, 0.996, -0.012, 192.0, 0.0, 0.0, 0.0, 0.0, 0.0, 0.0, 0.0, 0.0, 0.0, 1.694076922866541E9, 0.0, 2023-09-07 16:55:22.866
57.0, 7159.7331356684135, -31325.72398492384, -3777.5789234136255, -7103.987884996878, 9467.863675101242, 9907.097805392481, 4640.803294277584, 20770.78321823874, -0.026000000000000002, 0.988, -0.01, 192.0, 255.0, 48.0, 30.0, 224.0, 255.0, 176.0, 0.0, 0.0, 0.0, 1.694076922866548E9, 0.0, 2023-09-07 16:55:22.866
58.0, 6954.387659357508, -31599.689316712538, -3949.4638382749367, -7290.915523876611, 9269.40253608257, 9710.000122785583, 4429.691067897209, 21061.914689769113, -0.026000000000000002, 0.988, -0.01, 192.0, 0.0, 0.0, 0.0, 0.0, 0.0, 0.0, 0.0, 0.0, 0.0, 1.694076922866556E9, 0.0, 2023-09-07 16:55:22.866
59.0, 6826.0886461840455, -31762.298257624898, -4084.6695404850893, -7462.398107337726, 9147.876101479067, 9563.707955325599, 4283.622417881777, 21191.510104120982, -0.026000000000000002, 0.988, -0.01, 192.0, 0.0, 0.0, 0.0, 0.0, 0.0, 0.0, 0.0, 0.0, 0.0, 1.694076922866564E9, 0.0, 2023-09-07 16:55:22.866
60.0, 7203.2296303784415, -31403.776276561774, -3862.8731802550774, -7684.038005356551, 9516.366960569258, 9842.344801705456, 4620.574965545531, 20620.646550732443, -0.026000000000000002, 0.988, -0.01, 192.0, 0.0, 0.0, 0.0, 0.0, 0.0, 0.0, 0.0, 0.0, 0.0, 1.694076922866571E9, 0.0, 2023-09-07 16:55:22.866
61.0, 7214.3831508616395, -31280.2828884462, -3745.54887360917, -7135.325030723218, 9504.431129030125, 9952.20362570329, 4645.564215846564, 20689.266406210234, -0.026000000000000002, 0.988, -0.01, 192.0, 0.0, 0.0, 0.0, 0.0, 0.0, 0.0, 0.0, 0.0, 0.0, 1.694076922926214E9, 0.0, 2023-09-07 16:55:22.926
62.0, 6984.718976583359, -31563.43478720603, -3925.7486374078558, -7244.088619242742, 9295.442318373003, 9733.000067830095, 4399.739730327097, 21028.699997508527, -0.026000000000000002, 0.988, -0.01, 192.0, 0.0, 0.0, 0.0, 0.0, 0.0, 0.0, 0.0, 0.0, 0.0, 1.694076922926285E9, 0.0, 2023-09-07 16:55:22.926
63.0, 6834.44819861033, -31746.674388250638, -4058.7191651724775, -7439.04053438193, 9152.771133514778, 9544.88778649423, 4275.151106733216, 21207.53630489544, -0.026000000000000002, 0.988, -0.01, 192.0, 0.0, 0.0, 0.0, 0.0, 0.0, 0.0, 0.0, 0.0, 0.0, 1.694076922926296E9, 0.0, 2023-09-07 16:55:22.926
64.0, 7131.838158588191, -31483.19202461148, -3910.236526755873, -7686.362586779904, 9437.152378219651, 9758.481056509145, 4588.053177363059, 20737.90380214498, -0.026000000000000002, 0.988, -0.01, 192.0, 0.0, 0.0, 0.0, 0.0, 0.0, 0.0, 0.0, 0.0, 0.0, 1.694076922926339E9, 0.0, 2023-09-07 16:55:22.926
65.0, 7253.878683314167, -31251.270324143214, -3726.281669888696, -7193.260752351374, 9538.629298046744, 10028.020742895693, 4721.940126650349, 20635.041074161658, -0.026000000000000002, 0.988, -0.01, 192.0, 0.0, 0.0, 0.0, 0.0, 0.0, 0.0, 0.0, 0.0, 0.0, 1.694076922926348E9, 0.0, 2023-09-07 16:55:22.926
66.0, 6994.2631714657755, -31542.714720095963, -3912.650515157046, -7198.982798931933, 9300.158536453073, 9738.051562076995, 4462.2352078241365, 20998.882770405147, -0.026000000000000002, 0.988, -0.01, 192.0, 0.0, 0.0, 0.0, 0.0, 0.0, 0.0, 0.0, 0.0, 0.0, 1.694076922926355E9, 0.0, 2023-09-07 16:55:22.926
67.0, 6843.008916736712, -31748.641341762705, -4039.2731474963607, -7450.082296142852, 9167.43387787746, 9554.633147076744, 4320.122816577294, 21180.28952840442, -0.016, 1.012, -0.01, 192.0, 255.0, 128.0, 31.0, 160.0, 255.0, 176.0, 0.0, 0.0, 0.0, 1.694076922926363E9, 0.0, 2023-09-07 16:55:22.926
68.0, 7053.674108227981, -31574.767121644873, -3969.0439664177857, -7701.360607309414, 9371.482953009958, 9681.38988988279, 4482.55294353401, 20833.435157946966, -0.016, 1.012, -0.01, 192.0, 0.0, 0.0, 0.0, 0.0, 0.0, 0.0, 0.0, 0.0, 0.0, 1.694076922926371E9, 0.0, 2023-09-07 16:55:22.926
69.0, 7280.499610960438, -31246.487050829775, -3716.7374750062795, -7283.651206928636, 9578.884789810752, 9958.439762406322, 4698.515498461187, 20562.59907038201, -0.016, 1.012, -0.01, 192.0, 0.0, 0.0, 0.0, 0.0, 0.0, 0.0, 0.0, 0.0, 0.0, 1.694076922926379E9, 0.0, 2023-09-07 16:55:22.926
70.0, 7009.395302462019, -31523.223998930935, -3897.0937010161524, -7156.492132722394, 9306.551135367292, 9725.892213093306, 4461.4528967682, 20945.28328720132, -0.016, 1.012, -0.01, 192.0, 0.0, 0.0, 0.0, 0.0, 0.0, 0.0, 0.0, 0.0, 0.0, 1.694076922926386E9, 0.0, 2023-09-07 16:55:22.926
71.0, 6832.838873009548, -31760.28660062392, -4048.8843976121425, -7470.8917702307435, 9136.074380406664, 9543.166702171171, 4322.693267189654, 21156.283754859418, -0.016, 1.012, -0.01, 192.0, 0.0, 0.0, 0.0, 0.0, 0.0, 0.0, 0.0, 0.0, 0.0, 1.694076922926394E9, 0.0, 2023-09-07 16:55:22.926
72.0, 6979.511020125273, -31665.246983199955, -4022.4646356659696, -7710.323656835993, 9287.26157990236, 9592.452298695123, 4436.418942978256, 20936.47669988593, -0.016, 1.012, -0.01, 192.0, 0.0, 0.0, 0.0, 0.0, 0.0, 0.0, 0.0, 0.0, 0.0, 1.694076922926401E9, 0.0, 2023-09-07 16:55:22.926
73.0, 7264.495761930438, -31283.702705347863, -3759.3175481936396, -7390.93958031411, 9567.172475716172, 9967.961605544282, 4672.475716170754, 20536.82750902504, -0.016, 1.012, -0.01, 192.0, 0.0, 0.0, 0.0, 0.0, 0.0, 0.0, 0.0, 0.0, 0.0, 1.694076922926409E9, 0.0, 2023-09-07 16:55:22.926
74.0, 7044.845169168136, -31477.51468151983, -3874.0937559716413, -7107.228887942897, 9337.977688071453, 9802.782214019564, 4480.69774874422, 20921.99276947889, -0.016, 1.012, -0.01, 192.0, 0.0, 0.0, 0.0, 0.0, 0.0, 0.0, 0.0, 0.0, 0.0, 1.694076922926416E9, 0.0, 2023-09-07 16:55:22.926
75.0, 6882.906780589436, -31713.19147505659, -4013.4121791615703, -7433.229080823551, 9174.273511680783, 9623.409464765724, 4368.29082587848, 21111.781431648902, -0.016, 1.012, -0.01, 192.0, 0.0, 0.0, 0.0, 0.0, 0.0, 0.0, 0.0, 0.0, 0.0, 1.694076922926424E9, 0.0, 2023-09-07 16:55:22.926
76.0, 6955.70641228037, -31686.65995438814, -4022.1740629880505, -7657.461781199191, 9250.515312017837, 9626.471653756102, 4402.06431175045, 21014.126660123668, -0.016, 1.012, -0.01, 192.0, 0.0, 0.0, 0.0, 0.0, 0.0, 0.0, 0.0, 0.0, 0.0, 1.69407692298643E9, 0.0, 2023-09-07 16:55:22.986
77.0, 7285.193477296052, -31276.170167466425, -3759.0940307490864, -7438.526444259459, 9579.46593516659, 9909.489442049198, 4691.362940235489, 20535.464052613264, -0.006, 1.008, -0.01, 192.0, 255.0, 208.0, 31.0, 128.0, 255.0, 176.0, 0.0, 0.0, 0.0, 1.694076922986454E9, 0.0, 2023-09-07 16:55:22.986
78.0, 7073.187181137465, -31443.60708518113, -3852.4796190833595, -7078.149268406542, 9362.676365694568, 9774.88723693934, 4506.961048479206, 20851.875347122594, -0.006, 1.008, -0.01, 192.0, 0.0, 0.0, 0.0, 0.0, 0.0, 0.0, 0.0, 0.0, 0.0, 1.694076922986463E9, 0.0, 2023-09-07 16:55:22.986
79.0, 6928.861967189547, -31673.65123911515, -3980.421004345537, -7396.862792594767, 9214.596058678158, 9655.640680270277, 4393.101262223871, 21087.820361592814, -0.006, 1.008, -0.01, 192.0, 0.0, 0.0, 0.0, 0.0, 0.0, 0.0, 0.0, 0.0, 0.0, 1.694076922986508E9, 0.0, 2023-09-07 16:55:22.986
80.0, 6920.278897318709, -31719.80759141536, -4027.3149642127714, -7623.241260438116, 9212.942029588465, 9620.928421131184, 4376.2480469045695, 21100.627911165706, -0.006, 1.008, -0.01, 192.0, 0.0, 0.0, 0.0, 0.0, 0.0, 0.0, 0.0, 0.0, 0.0, 1.694076922986516E9, 0.0, 2023-09-07 16:55:22.986
81.0, 7227.168348690075, -31335.82697341764, -3818.795540189212, -7523.731294123089, 9506.97922789803, 9885.126040592915, 4645.050125724092, 20553.16663422187, -0.006, 1.008, -0.01, 192.0, 0.0, 0.0, 0.0, 0.0, 0.0, 0.0, 0.0, 0.0, 0.0, 1.694076922986524E9, 0.0, 2023-09-07 16:55:22.986
82.0, 7108.5476408657605, -31397.584843347653, -3838.621537521069, -7068.269797357297, 9407.066930182807, 9796.501373827621, 4516.929926506273, 20787.368212624577, -0.006, 1.008, -0.01, 192.0, 0.0, 0.0, 0.0, 0.0, 0.0, 0.0, 0.0, 0.0, 0.0, 1.694076922986532E9, 0.0, 2023-09-07 16:55:22.986
83.0, 6932.259432346754, -31661.134262220177, -3989.227591660928, -7365.235074190507, 9231.78455016429, 9605.95275234613, 4372.425898602713, 21036.992494701444, -0.006, 1.008, -0.01, 192.0, 0.0, 0.0, 0.0, 0.0, 0.0, 0.0, 0.0, 0.0, 0.0, 1.694076922986539E9, 0.0, 2023-09-07 16:55:22.986
84.0, 6900.184679053388, -31750.965923186057, -4028.0302200353412, -7608.734978286622, 9206.39296846306, 9568.021842005473, 4346.028488400994, 21116.207077051055, -0.006, 1.008, -0.01, 192.0, 0.0, 0.0, 0.0, 0.0, 0.0, 0.0, 0.0, 0.0, 0.0, 1.694076922986547E9, 0.0, 2023-09-07 16:55:22.986
85.0, 7197.9993221759, -31400.468218382386, -3846.9587382028985, -7597.715568270156, 9498.552620238379, 9827.302077687034, 4601.665389736341, 20599.233579544256, -0.006, 1.008, -0.01, 192.0, 0.0, 0.0, 0.0, 0.0, 0.0, 0.0, 0.0, 0.0, 0.0, 1.694076922986554E9, 0.0, 2023-09-07 16:55:22.986
86.0, 7134.408609200551, -31379.926965227958, -3811.2182988188624, -7099.606943083638, 9423.070779212807, 9835.23694696867, 4565.701432907753, 20724.693921171896, -0.006, 1.008, -0.01, 192.0, 0.0, 0.0, 0.0, 0.0, 0.0, 0.0, 0.0, 0.0, 0.0, 1.694076922986561E9, 0.0, 2023-09-07 16:55:22.986
87.0, 6922.536423508695, -31666.521032633907, -3978.386995600104, -7328.086474905786, 9223.201480293452, 9628.818586923908, 4377.857372505352, 21015.043081646334, 0.012, 1.022, -0.018000000000000002, 192.0, 0.0, 96.0, 31.0, 240.0, 255.0, 112.0, 0.0, 0.0, 0.0, 1.694076922986569E9, 0.0, 2023-09-07 16:55:22.986
88.0, 6870.725079861293, -31786.86282478128, -4031.3159264702713, -7600.286018882516, 9165.24340692084, 9592.139374272749, 4329.957584137629, 21146.359580321263, 0.012, 1.022, -0.018000000000000002, 192.0, 0.0, 0.0, 0.0, 0.0, 0.0, 0.0, 0.0, 0.0, 0.0, 1.694076922986577E9, 0.0, 2023-09-07 16:55:22.986
89.0, 7159.50961822386, -31462.65077145705, -3873.6467210825354, -7650.353926462403, 9443.701439345055, 9802.312827386002, 4571.803459144051, 20702.252769738767, 0.012, 1.022, -0.018000000000000002, 192.0, 0.0, 0.0, 0.0, 0.0, 0.0, 0.0, 0.0, 0.0, 0.0, 1.694076922986584E9, 0.0, 2023-09-07 16:55:22.986
90.0, 7204.816604234768, -31309.47426670483, -3757.3505946815726, -7119.634106115593, 9485.700367176578, 9918.117215408947, 4616.395189332389, 20673.687240324885, 0.012, 1.022, -0.018000000000000002, 192.0, 0.0, 0.0, 0.0, 0.0, 0.0, 0.0, 0.0, 0.0, 0.0, 1.694076922986591E9, 0.0, 2023-09-07 16:55:22.986
91.0, 6968.80453453118, -31603.086781869744, -3941.5960242266688, -7241.227595952463, 9235.383181021594, 9661.653299528754, 4407.674599608731, 21003.464878018487, 0.012, 1.022, -0.018000000000000002, 192.0, 0.0, 0.0, 0.0, 0.0, 0.0, 0.0, 0.0, 0.0, 0.0, 1.694076923046845E9, 0.0, 2023-09-07 16:55:23.046
92.0, 6862.946672790847, -31773.60824031928, -4024.833920578232, -7566.378422543815, 9135.113255395087, 9530.761483998476, 4332.058648116427, 21152.930993191123, 0.012, 1.022, -0.018000000000000002, 192.0, 0.0, 0.0, 0.0, 0.0, 0.0, 0.0, 0.0, 0.0, 0.0, 1.694076923046964E9, 0.0, 2023-09-07 16:55:23.046
93.0, 7076.763460250314, -31548.235600976423, -3931.7612566663333, -7707.8649649459085, 9377.964958901997, 9682.52982885001, 4488.163231392292, 20787.59173006913, 0.012, 1.022, -0.018000000000000002, 192.0, 0.0, 0.0, 0.0, 0.0, 0.0, 0.0, 0.0, 0.0, 0.0, 1.694076923046979E9, 0.0, 2023-09-07 16:55:23.046
94.0, 7225.156691689097, -31283.166263480936, -3749.3486701665724, -7193.551325029293, 9525.21825137356, 9942.547672098599, 4626.341715615001, 20609.448326760332, 0.012, 1.022, -0.018000000000000002, 192.0, 0.0, 0.0, 0.0, 0.0, 0.0, 0.0, 0.0, 0.0, 0.0, 1.69407692304699E9, 0.0, 2023-09-07 16:55:23.046
95.0, 6990.418671419463, -31554.09175802371, -3916.0926838031633, -7164.114077581654, 9256.393820809582, 9723.746445625597, 4433.490864454611, 20991.506694734897, 0.012, 1.022, -0.018000000000000002, 192.0, 0.0, 0.0, 0.0, 0.0, 0.0, 0.0, 0.0, 0.0, 0.0, 1.694076923047132E9, 0.0, 2023-09-07 16:55:23.047
96.0, 6867.5287804041845, -31770.456644351085, -4024.7221618559556, -7540.942137353675, 9147.831397990156, 9583.288083468447, 4307.561136193412, 21118.464603241042, 0.012, 1.022, -0.018000000000000002, 192.0, 0.0, 0.0, 0.0, 0.0, 0.0, 0.0, 0.0, 0.0, 0.0, 1.694076923047148E9, 0.0, 2023-09-07 16:55:23.047
97.0, 7022.515776457283, -31628.92539846008, -3977.4705740774366, -7724.494662820657, 9320.185699485028, 9658.077020415905, 4430.920413842251, 20868.773265930806, 0.012, 1.03, -0.03, 192.0, 0.0, 96.0, 32.0, 48.0, 255.0, 16.0, 0.0, 0.0, 0.0, 1.694076923047162E9, 0.0, 2023-09-07 16:55:23.047
98.0, 7237.584261606248, -31293.3363072081, -3771.0969175215864, -7292.055462843831, 9505.995751141996, 9902.001607656672, 4634.924785485839, 20548.83039579754, 0.012, 1.03, -0.03, 192.0, 0.0, 0.0, 0.0, 0.0, 0.0, 0.0, 0.0, 0.0, 0.0, 1.694076923047178E9, 0.0, 2023-09-07 16:55:23.047
99.0, 6983.891962038513, -31538.91492353856, -3922.977021095398, -7138.677792391514, 9254.024535897319, 9693.146907466282, 4424.818387605952, 20919.265856655344, 0.012, 1.03, -0.03, 192.0, 0.0, 0.0, 0.0, 0.0, 0.0, 0.0, 0.0, 0.0, 0.0, 1.69407692304719E9, 0.0, 2023-09-07 16:55:23.047
100.0, 6868.489905415762, -31751.703530753082, -4030.5559671587907, -7509.336770693872, 9142.891662465532, 9546.184187672638, 4315.987743853062, 21099.197399520566, 0.012, 1.03, -0.03, 192.0, 0.0, 0.0, 0.0, 0.0, 0.0, 0.0, 0.0, 0.0, 0.0, 1.694076923047202E9, 0.0, 2023-09-07 16:55:23.047
101.0, 6961.428458860929, -31688.068114288824, -4022.2411182214164, -7714.794005727054, 9248.436599783492, 9597.190868519649, 4373.543485825478, 20966.942127578513, 0.012, 1.03, -0.03, 192.0, 0.0, 0.0, 0.0, 0.0, 0.0, 0.0, 0.0, 0.0, 0.0, 1.694076923047214E9, 0.0, 2023-09-07 16:55:23.047
102.0, 7216.886546240634, -31313.922263851437, -3813.855804664589, -7382.155344743174, 9484.985111354008, 9891.004549384661, 4610.740197985197, 20534.68174155733, 0.012, 1.03, -0.03, 192.0, 0.0, 0.0, 0.0, 0.0, 0.0, 0.0, 0.0, 0.0, 0.0, 1.694076923047226E9, 0.0, 2023-09-07 16:55:23.047
103.0, 6984.2272382053425, -31520.251216918376, -3929.6378409430795, -7116.616620614126, 9257.600815010168, 9739.236204533125, 4411.183823488214, 20849.148434299044, 0.012, 1.03, -0.03, 192.0, 0.0, 0.0, 0.0, 0.0, 0.0, 0.0, 0.0, 0.0, 0.0, 1.694076923047238E9, 0.0, 2023-09-07 16:55:23.047
104.0, 6832.928279987369, -31764.019341947955, -4058.875627383665, -7499.725520578089, 9135.068551906175, 9536.908213723686, 4279.353234690814, 21034.73496851146, 0.012, 1.03, -0.03, 192.0, 0.0, 0.0, 0.0, 0.0, 0.0, 0.0, 0.0, 0.0, 0.0, 1.694076923047255E9, 0.0, 2023-09-07 16:55:23.047
105.0, 6887.555943436139, -31749.55776328537, -4053.5335604588463, -7723.175909897794, 9205.96828531841, 9555.124885454761, 4327.722409692098, 21022.910895694604, 0.012, 1.03, -0.03, 192.0, 0.0, 0.0, 0.0, 0.0, 0.0, 0.0, 0.0, 0.0, 0.0, 1.694076923047268E9, 0.0, 2023-09-07 16:55:23.047
106.0, 7215.925421229055, -31332.429508260433, -3818.527319255748, -7475.42917435517, 9499.223172572038, 9856.51580769012, 4621.245517879191, 20547.332828919036, 0.012, 1.03, -0.03, 192.0, 0.0, 0.0, 0.0, 0.0, 0.0, 0.0, 0.0, 0.0, 0.0, 1.694076923107046E9, 0.0, 2023-09-07 16:55:23.107
107.0, 7050.835436682158, -31444.94818984845, -3873.6914245714456, -7074.014195682311, 9320.945658796509, 9778.463516052188, 4487.202106380714, 20807.663596589995, 0.01, 1.012, -0.038, 192.0, 0.0, 80.0, 31.0, 160.0, 254.0, 208.0, 0.0, 0.0, 0.0, 1.694076923107071E9, 0.0, 2023-09-07 16:55:23.107
108.0, 6885.633693412983, -31706.776524397916, -4021.4811589099363, -7416.75584515999, 9192.28901771176, 9556.488341866534, 4326.04602885795, 21035.651390034127, 0.01, 1.012, -0.038, 192.0, 0.0, 0.0, 0.0, 0.0, 0.0, 0.0, 0.0, 0.0, 0.0, 1.694076923107079E9, 0.0, 2023-09-07 16:55:23.107
109.0, 6872.692033373361, -31777.251574665497, -4061.4907814849357, -7676.170191308283, 9188.712738598912, 9540.17156841416, 4309.5057379610225, 21089.295576726865, 0.01, 1.012, -0.038, 192.0, 0.0, 0.0, 0.0, 0.0, 0.0, 0.0, 0.0, 0.0, 0.0, 1.694076923107089E9, 0.0, 2023-09-07 16:55:23.107
110.0, 7161.364813013651, -31412.06877375469, -3882.8556397981215, -7582.7398994851, 9456.866616829231, 9803.98920822015, 4553.743249624164, 20571.897396075416, 0.01, 1.012, -0.038, 192.0, 0.0, 0.0, 0.0, 0.0, 0.0, 0.0, 0.0, 0.0, 0.0, 1.694076923107096E9, 0.0, 2023-09-07 16:55:23.107
111.0, 7053.383535550062, -31434.822849610195, -3882.0286252532755, -7117.778911325802, 9350.539368455335, 9792.545115059032, 4482.016501667083, 20724.649217682985, 0.01, 1.012, -0.038, 192.0, 0.0, 0.0, 0.0, 0.0, 0.0, 0.0, 0.0, 0.0, 0.0, 1.694076923107127E9, 0.0, 2023-09-07 16:55:23.107
112.0, 6852.709573830316, -31716.365422769242, -4047.118609800173, -7386.022196533942, 9164.215226675895, 9572.64865310772, 4305.549479192434, 21014.35017756822, 0.01, 1.012, -0.038, 192.0, 0.0, 0.0, 0.0, 0.0, 0.0, 0.0, 0.0, 0.0, 0.0, 1.694076923107138E9, 0.0, 2023-09-07 16:55:23.107
113.0, 6839.723210301782, -31791.690801583627, -4066.7881449208435, -7644.944804304219, 9154.514569582292, 9555.974251744063, 4308.678723416177, 21152.685124002117, 0.01, 1.012, -0.038, 192.0, 0.0, 0.0, 0.0, 0.0, 0.0, 0.0, 0.0, 0.0, 0.0, 1.694076923107149E9, 0.0, 2023-09-07 16:55:23.107
114.0, 7147.305565751263, -31438.734404889874, -3891.3045992022276, -7630.170301219261, 9452.977413294007, 9761.297376310513, 4555.263168247124, 20706.61135990755, 0.01, 1.012, -0.038, 192.0, 0.0, 0.0, 0.0, 0.0, 0.0, 0.0, 0.0, 0.0, 0.0, 1.694076923107158E9, 0.0, 2023-09-07 16:55:23.107
115.0, 7141.695277892981, -31356.412930060975, -3822.6400402355243, -7129.670039376026, 9410.48674708447, 9826.408007908823, 4547.864740832418, 20702.588045905595, 0.01, 1.012, -0.038, 192.0, 0.0, 0.0, 0.0, 0.0, 0.0, 0.0, 0.0, 0.0, 0.0, 1.694076923107167E9, 0.0, 2023-09-07 16:55:23.107
116.0, 6892.518030705218, -31666.856308800736, -4019.044818764308, -7305.019474627909, 9171.278377923772, 9591.647635894733, 4319.005229354529, 21010.72919496646, 0.012, 1.02, -0.046, 192.0, 0.0, 96.0, 31.0, 224.0, 254.0, 144.0, 0.0, 0.0, 0.0, 1.694076923107177E9, 0.0, 2023-09-07 16:55:23.107
117.0, 6804.407454062397, -31819.406964708207, -4089.117537631695, -7620.939030759219, 9120.025827887754, 9518.244507103504, 4256.777972790954, 21168.33134512083, 0.012, 1.02, -0.046, 192.0, 0.0, 0.0, 0.0, 0.0, 0.0, 0.0, 0.0, 0.0, 0.0, 1.694076923107187E9, 0.0, 2023-09-07 16:55:23.107
118.0, 7039.972488876879, -31549.353188199188, -3960.550303524769, -7708.311999835015, 9386.816249706299, 9709.173108240737, 4483.916399945784, 20792.799686527218, 0.012, 1.02, -0.046, 192.0, 0.0, 0.0, 0.0, 0.0, 0.0, 0.0, 0.0, 0.0, 0.0, 1.694076923107197E9, 0.0, 2023-09-07 16:55:23.107
119.0, 7157.766182156347, -31335.37993852853, -3808.267868550762, -7208.795214747813, 9446.808331824343, 9872.85493288695, 4594.803404188562, 20642.193632387356, 0.012, 1.02, -0.046, 192.0, 0.0, 0.0, 0.0, 0.0, 0.0, 0.0, 0.0, 0.0, 0.0, 1.694076923107209E9, 0.0, 2023-09-07 16:55:23.107
120.0, 6915.94265889438, -31627.67370077058, -3996.64837082009, -7242.993383764432, 9202.72728237239, 9636.529938760988, 4361.697061264165, 20998.435735516043, 0.012, 1.02, -0.046, 192.0, 0.0, 0.0, 0.0, 0.0, 0.0, 0.0, 0.0, 0.0, 0.0, 1.69407692310722E9, 0.0, 2023-09-07 16:55:23.107
121.0, 6825.082817683557, -31787.309859670386, -4067.8833803991533, -7570.893474923787, 9125.412598301482, 9535.902385223197, 4302.2861245019585, 21169.627746299237, 0.012, 1.02, -0.046, 192.0, 0.0, 0.0, 0.0, 0.0, 0.0, 0.0, 0.0, 0.0, 0.0, 1.694076923167216E9, 0.0, 2023-09-07 16:55:23.167
122.0, 7005.841375093624, -31614.55322677532, -4004.6279435906345, -7739.939718239274, 9313.882507548631, 9636.842863183363, 4441.8727686253515, 20907.0841559272, 0.012, 1.02, -0.046, 192.0, 0.0, 0.0, 0.0, 0.0, 0.0, 0.0, 0.0, 0.0, 0.0, 1.694076923167243E9, 0.0, 2023-09-07 16:55:23.167
123.0, 7185.102365625187, -31345.48292702233, -3840.610842777591, -7327.9076609501435, 9448.931747547596, 9806.358493132413, 4586.712072695741, 20591.56693119609, 0.012, 1.02, -0.046, 192.0, 0.0, 0.0, 0.0, 0.0, 0.0, 0.0, 0.0, 0.0, 0.0, 1.694076923167251E9, 0.0, 2023-09-07 16:55:23.167
124.0, 6925.598612499072, -31612.385107563154, -4006.907821525076, -7217.467691596472, 9201.430881193983, 9650.6785930012, 4357.204360628648, 20944.411569167565, 0.012, 1.02, -0.046, 192.0, 0.0, 0.0, 0.0, 0.0, 0.0, 0.0, 0.0, 0.0, 0.0, 1.694076923167258E9, 0.0, 2023-09-07 16:55:23.167
125.0, 6829.866090996992, -31777.72096129906, -4076.667615970089, -7546.9100531232425, 9122.66333373348, 9560.645766335221, 4288.0257115394725, 21126.37712077822, 0.012, 1.02, -0.046, 192.0, 0.0, 0.0, 0.0, 0.0, 0.0, 0.0, 0.0, 0.0, 0.0, 1.694076923167265E9, 0.0, 2023-09-07 16:55:23.167
126.0, 6973.833677033625, -31660.709579075527, -4014.418007662059, -7718.414988328814, 9273.202332639972, 9630.33850554687, 4407.741654842098, 21010.751546710915, 0.006, 1.002, -0.048, 192.0, 0.0, 48.0, 31.0, 80.0, 254.0, 128.0, 0.0, 0.0, 0.0, 1.694076923167272E9, 0.0, 2023-09-07 16:55:23.167
127.0, 7243.887453542645, -31295.19150199789, -3792.1522607984857, -7376.902684796177, 9511.136652366717, 9867.62462468441, 4654.951948517793, 20604.4638877468, 0.006, 1.002, -0.048, 192.0, 0.0, 0.0, 0.0, 0.0, 0.0, 0.0, 0.0, 0.0, 0.0, 1.694076923167307E9, 0.0, 2023-09-07 16:55:23.167
128.0, 7020.548822945217, -31508.024812701326, -3931.15775956604, -7114.627315357604, 9265.379222080615, 9719.477262434633, 4455.999071121106, 20941.662304599562, 0.006, 1.002, -0.048, 192.0, 0.0, 0.0, 0.0, 0.0, 0.0, 0.0, 0.0, 0.0, 0.0, 1.694076923167314E9, 0.0, 2023-09-07 16:55:23.167
129.0, 6873.295530473653, -31754.318684854352, -4071.6161217231897, -7478.67017730119, 9138.644831019024, 9542.004411459495, 4306.264735015004, 21122.152641076165, 0.006, 1.002, -0.048, 192.0, 0.0, 0.0, 0.0, 0.0, 0.0, 0.0, 0.0, 0.0, 0.0, 1.694076923167322E9, 0.0, 2023-09-07 16:55:23.167
130.0, 6900.0505685866565, -31734.20211484458, -4069.246836810927, -7706.2779910895815, 9203.084910283675, 9547.79351327342, 4345.536750022978, 21081.450114423053, 0.006, 1.002, -0.048, 192.0, 0.0, 0.0, 0.0, 0.0, 0.0, 0.0, 0.0, 0.0, 0.0, 1.69407692316733E9, 0.0, 2023-09-07 16:55:23.167
131.0, 7225.559023089293, -31322.974720355836, -3830.463150794882, -7476.8149825114, 9492.875277146732, 9878.018185856126, 4628.979221460727, 20579.78756186814, 0.006, 1.002, -0.048, 192.0, 0.0, 0.0, 0.0, 0.0, 0.0, 0.0, 0.0, 0.0, 0.0, 1.694076923167337E9, 0.0, 2023-09-07 16:55:23.167
132.0, 7005.930782071446, -31494.52435905032, -3927.559128708736, -7134.341553967185, 9303.757167310378, 9732.910660852272, 4413.195480489192, 20818.2136199729, 0.006, 1.002, -0.048, 192.0, 0.0, 0.0, 0.0, 0.0, 0.0, 0.0, 0.0, 0.0, 0.0, 1.694076923167344E9, 0.0, 2023-09-07 16:55:23.167
133.0, 6832.101265442523, -31768.780263516936, -4087.6199707531896, -7476.8149825114, 9162.80706677521, 9504.475832519036, 4229.039457921917, 21020.72042473798, 0.006, 1.002, -0.048, 192.0, 0.0, 0.0, 0.0, 0.0, 0.0, 0.0, 0.0, 0.0, 0.0, 1.694076923167351E9, 0.0, 2023-09-07 16:55:23.167
134.0, 6888.382957980986, -31784.67235382466, -4089.609276009712, -7690.274142059582, 9150.871235236078, 9513.438882045613, 4253.939301245129, 21091.910730828135, 0.006, 1.002, -0.048, 192.0, 0.0, 0.0, 0.0, 0.0, 0.0, 0.0, 0.0, 0.0, 0.0, 1.694076923167359E9, 0.0, 2023-09-07 16:55:23.167
135.0, 7232.778636548357, -31379.88226173905, -3875.792488550245, -7583.075175651929, 9490.081309089817, 9782.889161454339, 4556.648976403353, 20578.31234673409, 0.006, 1.002, -0.048, 192.0, 0.0, 0.0, 0.0, 0.0, 0.0, 0.0, 0.0, 0.0, 0.0, 1.694076923167366E9, 0.0, 2023-09-07 16:55:23.167
136.0, 7156.201560044475, -31405.407953907008, -3875.8148402947, -7113.554431623749, 9377.47322052398, 9788.745318501631, 4485.302208102013, 20758.355648321587, 0.002, 1.012, -0.058, 192.0, 0.0, 16.0, 31.0, 160.0, 254.0, 48.0, 0.0, 0.0, 0.0, 1.694076923227521E9, 0.0, 2023-09-07 16:55:23.227
137.0, 6967.7316507973255, -31672.64541061466, -4035.5404061723243, -7364.4751148790265, 9185.20351471943, 9592.161726017204, 4321.66508694471, 21032.231573132467, 0.002, 1.012, -0.058, 192.0, 0.0, 0.0, 0.0, 0.0, 0.0, 0.0, 0.0, 0.0, 0.0, 1.694076923227545E9, 0.0, 2023-09-07 16:55:23.227
138.0, 6950.163179655455, -31775.1505106867, -4073.1136886016952, -7620.424940636747, 9192.132555500575, 9534.941260211619, 4288.919781317685, 21182.748220294503, 0.002, 1.012, -0.058, 192.0, 0.0, 0.0, 0.0, 0.0, 0.0, 0.0, 0.0, 0.0, 0.0, 1.694076923227555E9, 0.0, 2023-09-07 16:55:23.227
139.0, 7278.4208987260945, -31429.257265240823, -3897.205459738429, -7647.336440960938, 9490.595399212289, 9741.449027234201, 4539.214615728213, 20695.56959814663, 0.002, 1.012, -0.058, 192.0, 0.0, 0.0, 0.0, 0.0, 0.0, 0.0, 0.0, 0.0, 0.0, 1.694076923227564E9, 0.0, 2023-09-07 16:55:23.227
140.0, 7214.785482261835, -31380.508110583796, -3864.661319811502, -7170.171400329042, 9426.021209480907, 9829.09021724346, 4501.84249899894, 20695.279025468713, 0.002, 1.012, -0.058, 192.0, 0.0, 0.0, 0.0, 0.0, 0.0, 0.0, 0.0, 0.0, 0.0, 1.694076923227573E9, 0.0, 2023-09-07 16:55:23.227
141.0, 7045.471018012884, -31642.627017811184, -4016.094388496207, -7310.674465975102, 9233.416227509526, 9594.195734762638, 4329.9352323931735, 21031.605724287718, 0.002, 1.012, -0.058, 192.0, 0.0, 0.0, 0.0, 0.0, 0.0, 0.0, 0.0, 0.0, 0.0, 1.694076923227582E9, 0.0, 2023-09-07 16:55:23.227
142.0, 7002.57802040315, -31772.222432163053, -4063.6589006971003, -7576.660224993257, 9164.706965053912, 9565.943129771129, 4329.264680059514, 21203.736508338035, 0.002, 1.012, -0.058, 192.0, 0.0, 0.0, 0.0, 0.0, 0.0, 0.0, 0.0, 0.0, 0.0, 1.694076923227613E9, 0.0, 2023-09-07 16:55:23.227
143.0, 7277.973863836988, -31502.012193442846, -3939.1373323365847, -7694.342159550448, 9406.932819716076, 9741.918413867763, 4561.096973549959, 20780.774448010263, 0.002, 1.012, -0.058, 192.0, 0.0, 0.0, 0.0, 0.0, 0.0, 0.0, 0.0, 0.0, 0.0, 1.694076923227622E9, 0.0, 2023-09-07 16:55:23.227
144.0, 7353.567463584836, -31336.4975257513, -3822.2600605797843, -7226.117816700676, 9491.936503879608, 9867.646976428865, 4609.264982851146, 20633.990542172258, 0.002, 1.012, -0.058, 192.0, 0.0, 0.0, 0.0, 0.0, 0.0, 0.0, 0.0, 0.0, 0.0, 1.69407692322763E9, 0.0, 2023-09-07 16:55:23.227
145.0, 7107.810033298735, -31639.564828820807, -4012.3616471721707, -7276.610407425214, 9267.972024437431, 9614.155842561227, 4367.821439244919, 20974.832293371237, 0.002, 1.012, -0.058, 192.0, 0.0, 0.0, 0.0, 0.0, 0.0, 0.0, 0.0, 0.0, 0.0, 1.694076923227639E9, 0.0, 2023-09-07 16:55:23.227
146.0, 7025.689724169937, -31815.29424372843, -4105.09903491724, -7594.340454857404, 9166.00336623232, 9455.63727088419, 4276.782784078453, 21142.246859341485, 0.004, 1.022, -0.054, 192.0, 0.0, 32.0, 31.0, 240.0, 254.0, 80.0, 0.0, 0.0, 0.0, 1.694076923227648E9, 0.0, 2023-09-07 16:55:23.227
147.0, 7289.77558490939, -31583.596060704716, -3988.199411415984, -7735.379962370392, 9410.330284873282, 9601.594162177344, 4463.643367724821, 20859.005553603834, 0.004, 1.022, -0.054, 192.0, 0.0, 0.0, 0.0, 0.0, 0.0, 0.0, 0.0, 0.0, 0.0, 1.694076923227658E9, 0.0, 2023-09-07 16:55:23.227
148.0, 7467.024918439975, -31310.882426605516, -3817.9908773888205, -7304.192460083063, 9528.392199086215, 9890.043424373082, 4642.122047200447, 20571.048029786114, 0.004, 1.022, -0.054, 192.0, 0.0, 0.0, 0.0, 0.0, 0.0, 0.0, 0.0, 0.0, 0.0, 1.694076923227667E9, 0.0, 2023-09-07 16:55:23.227
149.0, 7226.162520189586, -31572.64370592162, -3985.0478154477855, -7191.941999428511, 9272.55413205077, 9666.973014709118, 4448.533588473033, 20960.28130773083, 0.004, 1.022, -0.054, 192.0, 0.0, 0.0, 0.0, 0.0, 0.0, 0.0, 0.0, 0.0, 0.0, 1.694076923227676E9, 0.0, 2023-09-07 16:55:23.227
150.0, 7123.255088717353, -31790.126179471754, -4083.574305006779, -7531.286183748983, 9186.43286066447, 9637.535767261477, 4277.207467223104, 21097.31985298632, 0.004, 1.022, -0.054, 192.0, 0.0, 0.0, 0.0, 0.0, 0.0, 0.0, 0.0, 0.0, 0.0, 1.694076923227685E9, 0.0, 2023-09-07 16:55:23.227
151.0, 7284.388814495661, -31681.07201827431, -4050.091391812729, -7748.34397415447, 9345.577281186257, 9642.251985341547, 4397.772776815031, 20905.698347770973, 0.004, 1.022, -0.054, 192.0, 0.0, 0.0, 0.0, 0.0, 0.0, 0.0, 0.0, 0.0, 0.0, 1.694076923287021E9, 0.0, 2023-09-07 16:55:23.287
152.0, 7561.30457655246, -31335.558752484176, -3834.1958921189184, -7421.114435328775, 9615.921630373196, 9830.23015621068, 4637.897567498394, 20517.940284960307, 0.004, 1.022, -0.054, 192.0, 0.0, 0.0, 0.0, 0.0, 0.0, 0.0, 0.0, 0.0, 0.0, 1.69407692328705E9, 0.0, 2023-09-07 16:55:23.287
153.0, 7315.770663710912, -31555.634028391127, -3977.425870588526, -7173.32299629724, 9333.172063013562, 9699.628913358321, 4447.997146606105, 20892.153190631056, 0.004, 1.022, -0.054, 192.0, 0.0, 0.0, 0.0, 0.0, 0.0, 0.0, 0.0, 0.0, 0.0, 1.694076923287059E9, 0.0, 2023-09-07 16:55:23.287
154.0, 7163.711746181459, -31767.014475704967, -4087.485860286458, -7509.0461980159525, 9245.329707304205, 9565.719612326577, 4313.484348474068, 21089.452038938052, 0.004, 1.022, -0.054, 192.0, 0.0, 0.0, 0.0, 0.0, 0.0, 0.0, 0.0, 0.0, 0.0, 1.694076923287066E9, 0.0, 2023-09-07 16:55:23.287
155.0, 7231.482235369949, -31751.90469645318, -4100.852203470731, -7750.95912825574, 9338.201205516007, 9650.812703467931, 4328.9964591260505, 20985.58348245424, 0.004, 1.022, -0.054, 192.0, 0.0, 0.0, 0.0, 0.0, 0.0, 0.0, 0.0, 0.0, 0.0, 1.694076923287074E9, 0.0, 2023-09-07 16:55:23.287
156.0, 7557.325966039416, -31355.76472947177, -3868.5728750911803, -7528.894547092265, 9645.113008631828, 9917.53607005311, 4612.081302652515, 20482.780990932108, 0.02, 0.996, -0.048, 192.0, 0.0, 160.0, 31.0, 32.0, 254.0, 128.0, 0.0, 0.0, 0.0, 1.694076923287085E9, 0.0, 2023-09-07 16:55:23.287
157.0, 7366.6432340911915, -31496.75953349585, -3948.9050446635542, -7152.088839064699, 9424.300125157848, 9778.977606174662, 4481.547115033522, 20813.273884448277, 0.02, 0.996, -0.048, 192.0, 0.0, 0.0, 0.0, 0.0, 0.0, 0.0, 0.0, 0.0, 0.0, 1.694076923287093E9, 0.0, 2023-09-07 16:55:23.287
158.0, 7254.504532158916, -31743.746309726994, -4086.5917905082456, -7470.310624874905, 9292.26837066035, 9521.038475160418, 4332.2821655609805, 21059.657163579126, 0.02, 0.996, -0.048, 192.0, 0.0, 0.0, 0.0, 0.0, 0.0, 0.0, 0.0, 0.0, 0.0, 1.694076923287126E9, 0.0, 2023-09-07 16:55:23.287
159.0, 7261.992366551443, -31760.174841901644, -4091.6879882440558, -7695.727967706677, 9351.90282486711, 9525.709989751576, 4354.030412915995, 21120.208039308553, 0.02, 0.996, -0.048, 192.0, 0.0, 0.0, 0.0, 0.0, 0.0, 0.0, 0.0, 0.0, 0.0, 1.694076923287134E9, 0.0, 2023-09-07 16:55:23.287
160.0, 7572.636910991301, -31360.48094755184, -3870.204552436418, -7596.933257214219, 9704.412186671756, 9933.986953972215, 4617.5574800440645, 20548.11513997497, 0.02, 0.996, -0.048, 192.0, 0.0, 0.0, 0.0, 0.0, 0.0, 0.0, 0.0, 0.0, 0.0, 1.694076923287141E9, 0.0, 2023-09-07 16:55:23.287
161.0, 7466.6672905286905, -31407.64312835254, -3887.840078811655, -7147.774952384824, 9561.405725646702, 9875.492438732677, 4513.778330538074, 20732.449976497886, 0.02, 0.996, -0.048, 192.0, 0.0, 0.0, 0.0, 0.0, 0.0, 0.0, 0.0, 0.0, 0.0, 1.694076923287148E9, 0.0, 2023-09-07 16:55:23.287
162.0, 7210.762168259879, -31708.89994012117, -4073.672482213078, -7419.639220194724, 9372.846409421732, 9716.72799786663, 4315.093674074849, 20975.167569538065, 0.02, 0.996, -0.048, 192.0, 0.0, 0.0, 0.0, 0.0, 0.0, 0.0, 0.0, 0.0, 0.0, 1.694076923287156E9, 0.0, 2023-09-07 16:55:23.287
163.0, 7222.943868988022, -31793.836569051335, -4101.14277614865, -7656.835932354443, 9361.223502304972, 9618.827357152386, 4328.549424236944, 21121.102109086765, 0.02, 0.996, -0.048, 192.0, 0.0, 0.0, 0.0, 0.0, 0.0, 0.0, 0.0, 0.0, 0.0, 1.694076923287163E9, 0.0, 2023-09-07 16:55:23.287
164.0, 7667.050679570518, -31403.01631725029, -3900.2452969843507, -7659.473438200169, 9692.811631299452, 9816.059150226016, 4618.116273655448, 20651.693123780864, 0.02, 0.996, -0.048, 192.0, 0.0, 0.0, 0.0, 0.0, 0.0, 0.0, 0.0, 0.0, 0.0, 1.69407692328717E9, 0.0, 2023-09-07 16:55:23.287
165.0, 7606.320989885448, -31320.58308369912, -3850.914996971488, -7154.771048399335, 9621.844842653853, 9780.676338753265, 4595.183383844303, 20747.470348771854, 0.02, 0.996, -0.048, 192.0, 0.0, 0.0, 0.0, 0.0, 0.0, 0.0, 0.0, 0.0, 0.0, 1.694076923287177E9, 0.0, 2023-09-07 16:55:23.287
166.0, 7239.037124995843, -31644.50456434543, -4044.6375661656343, -7386.648045378691, 9488.896666633686, 9729.513195695066, 4276.268693955982, 20946.825557568736, 0.036000000000000004, 0.986, -0.042, 192.0, 1.0, 32.0, 30.0, 208.0, 254.0, 176.0, 0.0, 0.0, 0.0, 1.694076923346749E9, 0.0, 2023-09-07 16:55:23.346
167.0, 7175.312301553763, -31747.657865006673, -4100.293409859349, -7676.796040153032, 9463.952119821563, 9733.514157952566, 4229.93352770013, 21098.057460553344, 0.036000000000000004, 0.986, -0.042, 192.0, 0.0, 0.0, 0.0, 0.0, 0.0, 0.0, 0.0, 0.0, 0.0, 1.694076923346781E9, 0.0, 2023-09-07 16:55:23.346
168.0, 7624.56001336098, -31432.118288531103, -3922.708800161934, -7746.0193927311175, 9690.82232604293, 9713.196422242692, 4555.129057780392, 20748.00679063878, 0.036000000000000004, 0.986, -0.042, 192.0, 0.0, 0.0, 0.0, 0.0, 0.0, 0.0, 0.0, 0.0, 0.0, 1.694076923346789E9, 0.0, 2023-09-07 16:55:23.346
169.0, 7700.019502642096, -31281.735751835797, -3823.310592569184, -7255.175084492575, 9716.97386705564, 10105.469537433331, 4638.5681198320535, 20663.89717625346, 0.036000000000000004, 0.986, -0.042, 192.0, 0.0, 0.0, 0.0, 0.0, 0.0, 0.0, 0.0, 0.0, 0.0, 1.694076923346796E9, 0.0, 2023-09-07 16:55:23.346
170.0, 7268.630834654669, -31556.259877235876, -4007.8018913032884, -7328.511158050437, 9539.255146891493, 9865.031822327594, 4353.404564071246, 20998.748659938414, 0.036000000000000004, 0.986, -0.042, 192.0, 0.0, 0.0, 0.0, 0.0, 0.0, 0.0, 0.0, 0.0, 0.0, 1.694076923346803E9, 0.0, 2023-09-07 16:55:23.346
171.0, 7156.067449577743, -31794.44006615163, -4097.946476691542, -7641.524987402558, 9542.540853326424, 9771.243902593125, 4191.309713281359, 21123.94078063259, 0.036000000000000004, 0.986, -0.042, 192.0, 0.0, 0.0, 0.0, 0.0, 0.0, 0.0, 0.0, 0.0, 0.0, 1.69407692334681E9, 0.0, 2023-09-07 16:55:23.346
172.0, 7451.4681042990815, -31512.80808601476, -3977.805850244266, -7699.594819497445, 9758.570463486965, 9847.753923863642, 4436.0613150669715, 20806.2107332004, 0.036000000000000004, 0.986, -0.042, 192.0, 0.0, 0.0, 0.0, 0.0, 0.0, 0.0, 0.0, 0.0, 0.0, 1.694076923346817E9, 0.0, 2023-09-07 16:55:23.346
173.0, 7529.565099425924, -31298.901891577472, -3842.175464889463, -7235.729066816458, 9797.484850583656, 9780.653987008809, 4591.227125075713, 20606.587303470053, 0.036000000000000004, 0.986, -0.042, 192.0, 0.0, 0.0, 0.0, 0.0, 0.0, 0.0, 0.0, 0.0, 0.0, 1.694076923346824E9, 0.0, 2023-09-07 16:55:23.346
174.0, 7251.107067001709, -31638.693110787048, -4017.100216996696, -7187.628112748637, 9535.343591611814, 9840.936641804772, 4352.555197781944, 20956.43680768452, 0.036000000000000004, 0.986, -0.042, 192.0, 0.0, 0.0, 0.0, 0.0, 0.0, 0.0, 0.0, 0.0, 0.0, 1.694076923346865E9, 0.0, 2023-09-07 16:55:23.346
175.0, 7169.880827651123, -31760.063083179368, -4095.3983778236366, -7535.890643106776, 9480.671224674134, 9853.14069427737, 4222.2221758630485, 21066.809721804824, 0.036000000000000004, 0.986, -0.042, 192.0, 0.0, 0.0, 0.0, 0.0, 0.0, 0.0, 0.0, 0.0, 0.0, 1.694076923346872E9, 0.0, 2023-09-07 16:55:23.346
176.0, 7370.018347503942, -31642.2693898999, -4046.381002233148, -7690.47530775968, 9604.030502322972, 9892.747985452173, 4380.807802773453, 20908.648778039074, 0.042, 0.982, -0.054, 192.0, 1.0, 80.0, 30.0, 176.0, 254.0, 80.0, 0.0, 0.0, 0.0, 1.694076923346879E9, 0.0, 2023-09-07 16:55:23.346
177.0, 7450.037592653942, -31319.733717409817, -3843.203645134407, -7236.109046472197, 9805.106795442915, 10403.597104978217, 4584.745119183674, 20507.81494472205, 0.042, 0.982, -0.054, 192.0, 0.0, 0.0, 0.0, 0.0, 0.0, 0.0, 0.0, 0.0, 0.0, 1.694076923346887E9, 0.0, 2023-09-07 16:55:23.346
178.0, 7228.285935912841, -31561.825461605247, -3985.2489811478836, -6886.661873657928, 9569.742926328532, 10097.489964662787, 4394.4423668911895, 20900.490391312887, 0.042, 0.982, -0.054, 192.0, 0.0, 0.0, 0.0, 0.0, 0.0, 0.0, 0.0, 0.0, 0.0, 1.694076923346894E9, 0.0, 2023-09-07 16:55:23.346
179.0, 7117.331876436696, -31738.963036413556, -4089.452813798525, -7106.267762931319, 9447.970622536019, 9772.763821216085, 4270.1219642307715, 21107.22167578002, 0.042, 0.982, -0.054, 192.0, 0.0, 0.0, 0.0, 0.0, 0.0, 0.0, 0.0, 0.0, 0.0, 1.6940769233469E9, 0.0, 2023-09-07 16:55:23.346
180.0, 7060.44668679794, -31734.246818333486, -4078.6569212266118, -7222.988572476933, 9559.08114422335, 10026.098492872536, 4277.095708500828, 20926.351359647677, 0.042, 0.982, -0.054, 192.0, 0.0, 0.0, 0.0, 0.0, 0.0, 0.0, 0.0, 0.0, 0.0, 1.694076923346907E9, 0.0, 2023-09-07 16:55:23.346
181.0, 7289.440308742561, -31350.757938713785, -3836.2075491198957, -6677.002510667147, 9775.446030550722, 10326.125958696122, 4665.323157945056, 20504.57394177603, 0.042, 0.982, -0.054, 192.0, 0.0, 0.0, 0.0, 0.0, 0.0, 0.0, 0.0, 0.0, 0.0, 1.694076923407138E9, 0.0, 2023-09-07 16:55:23.407
182.0, 7060.670204242493, -31519.826533773725, -3938.623242214113, -6114.16323353806, 9585.567961402889, 10155.738610713317, 4420.34803871489, 20834.351579469632, 0.042, 0.982, -0.054, 192.0, 0.0, 0.0, 0.0, 0.0, 0.0, 0.0, 0.0, 0.0, 0.0, 1.694076923407247E9, 0.0, 2023-09-07 16:55:23.407
183.0, 6931.879452691013, -31855.30386630343, -4072.845467668232, -6243.669240912109, 9498.820841171842, 9991.855620367005, 4240.751772016499, 21031.851593476724, 0.042, 0.982, -0.054, 192.0, 0.0, 0.0, 0.0, 0.0, 0.0, 0.0, 0.0, 0.0, 0.0, 1.694076923407261E9, 0.0, 2023-09-07 16:55:23.407
184.0, 6921.0835601191, -31766.880365238234, -4079.953322405019, -6166.153391141104, 9509.661437232666, 10080.212066198834, 4290.998493552029, 21021.882715449658, 0.042, 0.982, -0.054, 192.0, 0.0, 0.0, 0.0, 0.0, 0.0, 0.0, 0.0, 0.0, 0.0, 1.694076923407273E9, 0.0, 2023-09-07 16:55:23.407
185.0, 7176.116964354153, -31396.154331702513, -3813.56523198667, -5623.453035766249, 9810.426510623278, 10417.119910373678, 4611.924840441327, 20504.082203398015, 0.042, 0.982, -0.054, 192.0, 0.0, 0.0, 0.0, 0.0, 0.0, 0.0, 0.0, 0.0, 0.0, 1.69407692340728E9, 0.0, 2023-09-07 16:55:23.407
186.0, 7022.806349135202, -31548.079138765235, -3862.8731802550774, -4815.52688068472, 9643.995421409061, 10328.204670930467, 4467.510219515589, 20740.58601147962, 0.038, 0.9560000000000001, -0.05, 192.0, 1.0, 48.0, 29.0, 224.0, 254.0, 112.0, 0.0, 0.0, 0.0, 1.694076923407288E9, 0.0, 2023-09-07 16:55:23.407
187.0, 6820.433654836853, -31798.06104875339, -4031.159464259084, -4700.035417084148, 9485.432146243113, 10195.278846654755, 4286.70695861661, 20974.34055499322, 0.038, 0.9560000000000001, -0.05, 192.0, 0.0, 0.0, 0.0, 0.0, 0.0, 0.0, 0.0, 0.0, 0.0, 1.694076923407295E9, 0.0, 2023-09-07 16:55:23.407
188.0, 6742.71663936575, -31886.68571551868, -4071.772583934377, -4612.2154131192465, 9457.000727295963, 10241.748123377338, 4268.624397352266, 21023.58144802826, 0.038, 0.9560000000000001, -0.05, 192.0, 0.0, 0.0, 0.0, 0.0, 0.0, 0.0, 0.0, 0.0, 0.0, 1.694076923407302E9, 0.0, 2023-09-07 16:55:23.407
189.0, 7149.250167518875, -31454.917067875514, -3821.1201216125637, -4257.247359424515, 9809.152461189326, 10357.552511400285, 4502.289533888046, 20517.180325648824, 0.038, 0.9560000000000001, -0.05, 192.0, 0.0, 0.0, 0.0, 0.0, 0.0, 0.0, 0.0, 0.0, 0.0, 1.694076923407309E9, 0.0, 2023-09-07 16:55:23.407
190.0, 6971.933778754924, -31511.75755402536, -3784.753833383779, -3536.9847460967003, 9713.911678065262, 10203.817213036682, 4447.795980906008, 20667.451103621854, 0.038, 0.9560000000000001, -0.05, 192.0, 0.0, 0.0, 0.0, 0.0, 0.0, 0.0, 0.0, 0.0, 0.0, 1.694076923407347E9, 0.0, 2023-09-07 16:55:23.407
191.0, 6747.969299312747, -31755.168051143653, -3973.871943220132, -3402.159023542288, 9447.233014968993, 10335.468987878441, 4236.527292314446, 20886.31938532822, 0.038, 0.9560000000000001, -0.05, 192.0, 0.0, 0.0, 0.0, 0.0, 0.0, 0.0, 0.0, 0.0, 0.0, 1.694076923407354E9, 0.0, 2023-09-07 16:55:23.407
192.0, 6680.288217102077, -31836.77427014998, -4001.2751819223386, -3165.5434567384073, 9409.257401139426, 10306.456423575453, 4217.0589228938725, 21024.363759084197, 0.038, 0.9560000000000001, -0.05, 192.0, 0.0, 0.0, 0.0, 0.0, 0.0, 0.0, 0.0, 0.0, 0.0, 1.694076923407361E9, 0.0, 2023-09-07 16:55:23.407
193.0, 6929.80074045667, -31555.321103968756, -3812.000609874798, -2753.7796203827406, 9724.037018303516, 10452.972108479991, 4426.226547506636, 20563.470788415765, 0.038, 0.9560000000000001, -0.05, 192.0, 0.0, 0.0, 0.0, 0.0, 0.0, 0.0, 0.0, 0.0, 0.0, 1.694076923407368E9, 0.0, 2023-09-07 16:55:23.407
194.0, 7011.585773418638, -31432.83354435367, -3654.8007911206237, -1906.6708572710584, 9756.827027419451, 10587.306092656385, 4495.315789617991, 20551.959640021283, 0.038, 0.9560000000000001, -0.05, 192.0, 0.0, 0.0, 0.0, 0.0, 0.0, 0.0, 0.0, 0.0, 0.0, 1.694076923407375E9, 0.0, 2023-09-07 16:55:23.407
195.0, 6736.94988929628, -31790.90849052769, -3883.1909159649513, -1750.2533495728196, 9494.484602747512, 10275.968644138413, 4263.103516471805, 20866.35927752963, 0.038, 0.9560000000000001, -0.05, 192.0, 0.0, 0.0, 0.0, 0.0, 0.0, 0.0, 0.0, 0.0, 0.0, 1.694076923407385E9, 0.0, 2023-09-07 16:55:23.407
196.0, 6608.986152289647, -31932.640902118794, -3939.4055532700486, -1695.111596001577, 9468.713041390543, 10154.419857790454, 4136.324421921304, 20988.422154000065, 0.034, 1.034, -0.052000000000000005, 192.0, 1.0, 16.0, 32.0, 80.0, 254.0, 96.0, 0.0, 0.0, 0.0, 1.694076923467319E9, 0.0, 2023-09-07 16:55:23.467
197.0, 6871.753260106238, -31629.73006126047, -3779.2776559922286, -1386.031673673591, 9681.971035238628, 10421.25498309791, 4370.883628235296, 20647.781568501185, 0.034, 1.034, -0.052000000000000005, 192.0, 0.0, 0.0, 0.0, 0.0, 0.0, 0.0, 0.0, 0.0, 0.0, 1.694076923467359E9, 0.0, 2023-09-07 16:55:23.467
198.0, 6969.408031631474, -31394.746171801828, -3608.7785492871467, -683.1810692764603, 9743.997126102106, 10540.546243255883, 4524.015429498605, 20477.550682729565, 0.034, 1.034, -0.052000000000000005, 192.0, 0.0, 0.0, 0.0, 0.0, 0.0, 0.0, 0.0, 0.0, 0.0, 1.694076923467366E9, 0.0, 2023-09-07 16:55:23.467
199.0, 6732.591299127495, -31701.166236539633, -3776.483687935315, -549.428230455903, 9481.811163641354, 10353.417438676053, 4329.845825415352, 20855.60808844663, 0.034, 1.034, -0.052000000000000005, 192.0, 0.0, 0.0, 0.0, 0.0, 0.0, 0.0, 0.0, 0.0, 0.0, 1.694076923467373E9, 0.0, 2023-09-07 16:55:23.467
200.0, 6649.286347542567, -31876.716837491615, -3833.3465258296164, -595.0481408891847, 9420.05329371134, 10330.752769798371, 4244.663327296177, 21022.620323016683, 0.034, 1.034, -0.052000000000000005, 192.0, 0.0, 0.0, 0.0, 0.0, 0.0, 0.0, 0.0, 0.0, 0.0, 1.69407692346738E9, 0.0, 2023-09-07 16:55:23.467
201.0, 6825.753370017215, -31737.353710812775, -3769.2193709873404, -518.6722300854004, 9579.532990399955, 10400.736081687937, 4356.980843184095, 20767.63162227054, 0.034, 1.034, -0.052000000000000005, 192.0, 0.0, 0.0, 0.0, 0.0, 0.0, 0.0, 0.0, 0.0, 0.0, 1.694076923467387E9, 0.0, 2023-09-07 16:55:23.467
202.0, 6972.403165388485, -31417.65670986852, -3549.859350902957, 13.656915862192616, 9767.846437435917, 10601.365339918773, 4553.765601368618, 20444.55950791353, 0.034, 1.034, -0.052000000000000005, 192.0, 0.0, 0.0, 0.0, 0.0, 0.0, 0.0, 0.0, 0.0, 0.0, 1.694076923467394E9, 0.0, 2023-09-07 16:55:23.467
203.0, 6696.314417876532, -31685.855291587748, -3704.555774278137, 118.48659735758274, 9542.049114948406, 10321.007409215857, 4332.550386494445, 20821.454622918918, 0.034, 1.034, -0.052000000000000005, 192.0, 0.0, 0.0, 0.0, 0.0, 0.0, 0.0, 0.0, 0.0, 0.0, 1.694076923467401E9, 0.0, 2023-09-07 16:55:23.467
204.0, 6622.352495473921, -31812.992014049534, -3773.332091967117, -68.91042815571167, 9420.00859022243, 10223.464396412897, 4273.0500427544175, 21047.27429715089, 0.034, 1.034, -0.052000000000000005, 192.0, 0.0, 0.0, 0.0, 0.0, 0.0, 0.0, 0.0, 0.0, 0.0, 1.694076923467408E9, 0.0, 2023-09-07 16:55:23.467
205.0, 6754.652470904884, -31733.79978344438, -3728.3603821230395, -105.07555068439851, 9558.075315722861, 10487.192629241066, 4314.423121741191, 20869.108542097634, 0.014, 1.034, -0.044, 192.0, 0.0, 112.0, 32.0, 80.0, 254.0, 160.0, 0.0, 0.0, 0.0, 1.694076923467415E9, 0.0, 2023-09-07 16:55:23.467
206.0, 7016.190232776432, -31369.30988661169, -3495.097576987455, 275.82052657848914, 9802.782214019564, 10711.60414357235, 4595.33984605549, 20440.782063100585, 0.014, 1.034, -0.044, 192.0, 0.0, 0.0, 0.0, 0.0, 0.0, 0.0, 0.0, 0.0, 0.0, 1.694076923467479E9, 0.0, 2023-09-07 16:55:23.467
207.0, 6831.453064853319, -31538.780813071826, -3577.6425692609037, 440.23995879172793, 9616.726293173588, 10537.148778098677, 4451.104039085393, 20804.86962853308, 0.014, 1.034, -0.044, 192.0, 0.0, 0.0, 0.0, 0.0, 0.0, 0.0, 0.0, 0.0, 0.0, 1.694076923467486E9, 0.0, 2023-09-07 16:55:23.467
208.0, 6695.0180166981245, -31757.269115122454, -3703.7511114777462, 115.67027755621405, 9485.20862879856, 10380.395994233608, 4336.797217940953, 21016.1606688691, 0.014, 1.034, -0.044, 192.0, 0.0, 0.0, 0.0, 0.0, 0.0, 0.0, 0.0, 0.0, 0.0, 1.694076923467493E9, 0.0, 2023-09-07 16:55:23.467
209.0, 6730.043200259591, -31776.04458046491, -3738.6421845724803, -77.58290500437082, 9504.02879762993, 10339.112322224657, 4344.217997100115, 20986.67871793255, 0.014, 1.034, -0.044, 192.0, 0.0, 0.0, 0.0, 0.0, 0.0, 0.0, 0.0, 0.0, 0.0, 1.6940769234675E9, 0.0, 2023-09-07 16:55:23.467
210.0, 7054.456419283917, -31380.26224139479, -3506.9440015487676, 171.1696590387415, 9786.17486788927, 10603.153479475199, 4596.748005956174, 20497.510790528155, 0.014, 1.034, -0.044, 192.0, 0.0, 0.0, 0.0, 0.0, 0.0, 0.0, 0.0, 0.0, 0.0, 1.694076923467507E9, 0.0, 2023-09-07 16:55:23.467
211.0, 6889.455841714841, -31488.444684558475, -3569.70769997927, 387.33337966601607, 9633.691267215165, 10512.785376642392, 4425.176015517237, 20766.2011106254, 0.014, 1.034, -0.044, 192.0, 0.0, 0.0, 0.0, 0.0, 0.0, 0.0, 0.0, 0.0, 0.0, 1.69407692352763E9, 0.0, 2023-09-07 16:55:23.527
212.0, 6703.221106913222, -31753.156394142676, -3737.1893211828856, 7.845462303812779, 9459.459419186047, 10312.670208534028, 4255.861551268286, 20991.953729624, 0.014, 1.034, -0.044, 192.0, 0.0, 0.0, 0.0, 0.0, 0.0, 0.0, 0.0, 0.0, 0.0, 1.694076923527662E9, 0.0, 2023-09-07 16:55:23.527
213.0, 6736.838130574004, -31792.54016787293, -3750.1980364558744, -216.29783109400645, 9478.592512439789, 10305.897629964069, 4325.800159668942, 21069.871910795202, 0.014, 1.034, -0.044, 192.0, 0.0, 0.0, 0.0, 0.0, 0.0, 0.0, 0.0, 0.0, 0.0, 1.694076923527674E9, 0.0, 2023-09-07 16:55:23.527
214.0, 7046.6780122134705, -31421.769430848293, -3565.8408481885017, -112.60808856583698, 9750.412076760778, 10540.143911855688, 4629.336849372012, 20559.35806743599, 0.014, 1.034, -0.044, 192.0, 0.0, 0.0, 0.0, 0.0, 0.0, 0.0, 0.0, 0.0, 0.0, 1.694076923527685E9, 0.0, 2023-09-07 16:55:23.527
215.0, 6967.66459556396, -31419.958939547414, -3548.473542746728, 178.94806610918835, 9664.53667456349, 10554.829007962824, 4589.126061096914, 20731.35474101958, 0.012, 1.026, -0.036000000000000004, 192.0, 0.0, 96.0, 32.0, 16.0, 254.0, 224.0, 0.0, 0.0, 0.0, 1.694076923527696E9, 0.0, 2023-09-07 16:55:23.527
216.0, 6759.301633751587, -31713.86202739025, -3751.270920189729, -201.05394137548703, 9452.642137127177, 10344.588499616206, 4360.691232763676, 20990.702031934507, 0.012, 1.026, -0.036000000000000004, 192.0, 0.0, 0.0, 0.0, 0.0, 0.0, 0.0, 0.0, 0.0, 0.0, 1.694076923527707E9, 0.0, 2023-09-07 16:55:23.527
217.0, 6722.801235056071, -31830.046395068934, -3817.3873802885273, -517.2193666958054, 9429.508081615935, 10271.163019080523, 4293.121909275283, 21082.724163857005, 0.012, 1.026, -0.036000000000000004, 192.0, 0.0, 0.0, 0.0, 0.0, 0.0, 0.0, 0.0, 0.0, 0.0, 1.694076923527719E9, 0.0, 2023-09-07 16:55:23.527
218.0, 7034.943346374434, -31496.75953349585, -3657.0583173106097, -542.2756722302047, 9727.054503804982, 10456.079000959278, 4558.437115959778, 20629.65430374793, 0.012, 1.026, -0.036000000000000004, 192.0, 0.0, 0.0, 0.0, 0.0, 0.0, 0.0, 0.0, 0.0, 0.0, 1.69407692352773E9, 0.0, 2023-09-07 16:55:23.527
219.0, 7051.7295064603695, -31394.83557877965, -3591.56770605656, -216.87897644984443, 9722.807672358475, 10593.363415403774, 4579.738328425686, 20660.36560062952, 0.012, 1.026, -0.036000000000000004, 192.0, 0.0, 0.0, 0.0, 0.0, 0.0, 0.0, 0.0, 0.0, 0.0, 1.694076923527741E9, 0.0, 2023-09-07 16:55:23.527
220.0, 6815.628029778962, -31694.661878903138, -3795.303856766684, -560.1570677944503, 9477.027890327918, 10328.04820871928, 4389.77085230003, 20973.62529917065, 0.012, 1.026, -0.036000000000000004, 192.0, 0.0, 0.0, 0.0, 0.0, 0.0, 0.0, 0.0, 0.0, 0.0, 1.694076923527751E9, 0.0, 2023-09-07 16:55:23.527
221.0, 6742.291956221099, -31846.094947587844, -3875.8148402947, -938.8850258451731, 9377.741441457443, 10227.107730759113, 4333.645621972754, 21118.55401021886, 0.012, 1.026, -0.036000000000000004, 192.0, 0.0, 0.0, 0.0, 0.0, 0.0, 0.0, 0.0, 0.0, 0.0, 1.6940769235278E9, 0.0, 2023-09-07 16:55:23.527
222.0, 7029.064837582689, -31559.076197037244, -3734.6188705705254, -1058.6680243811636, 9667.956491465151, 10415.331770817253, 4535.638336615364, 20740.273087057245, 0.012, 1.026, -0.036000000000000004, 192.0, 0.0, 0.0, 0.0, 0.0, 0.0, 0.0, 0.0, 0.0, 0.0, 1.69407692352781E9, 0.0, 2023-09-07 16:55:23.527
223.0, 7149.65249891907, -31346.622865989553, -3604.308200396085, -725.738790719365, 9753.228396562148, 10509.0302835739, 4634.701268041285, 20602.429879001367, 0.012, 1.026, -0.036000000000000004, 192.0, 0.0, 0.0, 0.0, 0.0, 0.0, 0.0, 0.0, 0.0, 0.0, 1.694076923527817E9, 0.0, 2023-09-07 16:55:23.527
224.0, 6885.879562601992, -31637.329654375277, -3791.794632887201, -976.3912530411784, 9495.646893459189, 10303.79656598527, 4394.1517942132705, 20978.363868995177, 0.012, 1.026, -0.036000000000000004, 192.0, 0.0, 0.0, 0.0, 0.0, 0.0, 0.0, 0.0, 0.0, 0.0, 1.694076923527824E9, 0.0, 2023-09-07 16:55:23.527
225.0, 6799.892401682425, -31813.237883238544, -3876.977131006376, -1397.2746011346105, 9405.926991215587, 10233.545033162241, 4319.429912499179, 21127.740577189994, 0.01, 1.006, -0.024, 192.0, 0.0, 80.0, 31.0, 112.0, 255.0, 64.0, 0.0, 0.0, 0.0, 1.694076923527831E9, 0.0, 2023-09-07 16:55:23.527
226.0, 7013.239802508331, -31617.794229721338, -3789.6041619305806, -1605.6599146914382, 9621.397807764746, 10314.57010681273, 4480.3177690884795, 20845.818024375203, 0.01, 1.006, -0.024, 192.0, 0.0, 0.0, 0.0, 0.0, 0.0, 0.0, 0.0, 0.0, 0.0, 1.694076923587921E9, 0.0, 2023-09-07 16:55:23.587
227.0, 7205.196583890508, -31317.140915053, -3604.9116974963786, -1313.030876282558, 9791.60634179191, 10534.332458297307, 4654.616672350964, 20563.269622715667, 0.01, 1.006, -0.024, 192.0, 0.0, 0.0, 0.0, 0.0, 0.0, 0.0, 0.0, 0.0, 0.0, 1.694076923587997E9, 0.0, 2023-09-07 16:55:23.587
228.0, 6965.3847176295185, -31580.466816480974, -3784.46326070586, -1458.4066222198753, 9520.300867593392, 10287.36803381062, 4423.857262594373, 20953.262859971866, 0.01, 1.006, -0.024, 192.0, 0.0, 0.0, 0.0, 0.0, 0.0, 0.0, 0.0, 0.0, 0.0, 1.694076923588005E9, 0.0, 2023-09-07 16:55:23.588
229.0, 6850.519102873695, -31780.850205522802, -3891.6398753690573, -1937.3150989192843, 9403.91533421461, 10125.76492139875, 4347.257834346036, 21112.921370616124, 0.01, 1.006, -0.024, 192.0, 0.0, 0.0, 0.0, 0.0, 0.0, 0.0, 0.0, 0.0, 0.0, 1.694076923588012E9, 0.0, 2023-09-07 16:55:23.588
230.0, 6990.597485375105, -31681.11672176322, -3849.9315202154544, -2231.575814673402, 9582.930455557163, 10209.203983450412, 4443.839722137418, 20948.636048869615, 0.01, 1.006, -0.024, 192.0, 0.0, 0.0, 0.0, 0.0, 0.0, 0.0, 0.0, 0.0, 0.0, 1.694076923588019E9, 0.0, 2023-09-07 16:55:23.588
231.0, 7277.280959758874, -31286.541376893685, -3617.7192470692694, -1983.9855413419655, 9826.028028253082, 10520.496728479473, 4702.114129318492, 20576.032468799647, 0.01, 1.006, -0.024, 192.0, 0.0, 0.0, 0.0, 0.0, 0.0, 0.0, 0.0, 0.0, 0.0, 1.694076923588026E9, 0.0, 2023-09-07 16:55:23.588
232.0, 7025.242689280831, -31520.63119657412, -3767.4982866642817, -1996.167242070108, 9566.680737338154, 10342.576842615228, 4462.928111902251, 20886.677013239507, 0.01, 1.006, -0.024, 192.0, 0.0, 0.0, 0.0, 0.0, 0.0, 0.0, 0.0, 0.0, 0.0, 1.694076923588033E9, 0.0, 2023-09-07 16:55:23.588
233.0, 6875.262483985721, -31767.48386233853, -3909.029532555286, -2513.0960360879944, 9456.263119728937, 10149.39071528801, 4322.76032242302, 21076.59978587625, 0.01, 1.006, -0.024, 192.0, 0.0, 0.0, 0.0, 0.0, 0.0, 0.0, 0.0, 0.0, 0.0, 1.69407692358804E9, 0.0, 2023-09-07 16:55:23.588
234.0, 6982.304988182186, -31714.309062279353, -3884.554372376725, -2845.0194412493042, 9564.065583236883, 10154.755133957284, 4402.153718728271, 21051.40936987512, 0.01, 1.006, -0.024, 192.0, 0.0, 0.0, 0.0, 0.0, 0.0, 0.0, 0.0, 0.0, 0.0, 1.694076923588047E9, 0.0, 2023-09-07 16:55:23.588
235.0, 7280.7678318939015, -31321.81242964416, -3670.3576052615176, -2736.836998085618, 9826.94444977575, 10400.065529354279, 4666.753669590195, 20581.5086461912, 0.016, 0.976, -0.018000000000000002, 192.0, 0.0, 128.0, 30.0, 128.0, 255.0, 112.0, 0.0, 0.0, 0.0, 1.694076923588054E9, 0.0, 2023-09-07 16:55:23.588
236.0, 7103.227925685397, -31468.506928504343, -3744.7665625532345, -2597.965609784795, 9641.559081263433, 10287.926827422003, 4504.859984500406, 20862.760646672326, 0.016, 0.976, -0.018000000000000002, 192.0, 0.0, 0.0, 0.0, 0.0, 0.0, 0.0, 0.0, 0.0, 0.0, 1.694076923588062E9, 0.0, 2023-09-07 16:55:23.588
237.0, 6928.839615445092, -31734.783260200413, -3917.9031751040434, -3096.3648076492323, 9485.49920147648, 10106.989456056292, 4347.704869235143, 21060.506529868428, 0.016, 0.976, -0.018000000000000002, 192.0, 0.0, 0.0, 0.0, 0.0, 0.0, 0.0, 0.0, 0.0, 0.0, 1.694076923588122E9, 0.0, 2023-09-07 16:55:23.588
238.0, 6966.6140635745605, -31770.836624006824, -3931.805960155244, -3451.154047388321, 9513.21536460106, 10126.077845821124, 4349.984747169584, 21098.59390242027, 0.016, 0.976, -0.018000000000000002, 192.0, 0.0, 0.0, 0.0, 0.0, 0.0, 0.0, 0.0, 0.0, 0.0, 1.694076923588129E9, 0.0, 2023-09-07 16:55:23.588
239.0, 7297.822212913301, -31368.1028924111, -3712.110663904031, -3409.6245061903605, 9824.150481718836, 10390.186058305033, 4640.713887299763, 20602.988672612748, 0.016, 0.976, -0.018000000000000002, 192.0, 0.0, 0.0, 0.0, 0.0, 0.0, 0.0, 0.0, 0.0, 0.0, 1.694076923588136E9, 0.0, 2023-09-07 16:55:23.588
240.0, 7172.853609663679, -31403.798628306227, -3719.374980852006, -3139.078991303324, 9704.389834927302, 10331.602136087673, 4560.5605316830315, 20792.844390016126, 0.016, 0.976, -0.018000000000000002, 192.0, 0.0, 0.0, 0.0, 0.0, 0.0, 0.0, 0.0, 0.0, 0.0, 1.694076923588143E9, 0.0, 2023-09-07 16:55:23.588
241.0, 7012.703360641403, -31649.31018940332, -3867.1647151904963, -3544.830208400513, 9527.051094418895, 10142.573433229141, 4430.093399297404, 21078.477332410497, 0.016, 0.976, -0.018000000000000002, 192.0, 0.0, 0.0, 0.0, 0.0, 0.0, 0.0, 0.0, 0.0, 0.0, 1.694076923647297E9, 0.0, 2023-09-07 16:55:23.647
242.0, 6983.154354471488, -31759.68310352363, -3914.885689602577, -3921.322992005705, 9540.752713769998, 10086.42585115741, 4366.882665977796, 21175.997993469, 0.016, 0.976, -0.018000000000000002, 192.0, 0.0, 0.0, 0.0, 0.0, 0.0, 0.0, 0.0, 0.0, 0.0, 1.694076923647358E9, 0.0, 2023-09-07 16:55:23.647
243.0, 7274.10701204622, -31421.098878514636, -3751.0921062340867, -3993.228553918428, 9815.94739150374, 10319.666304548538, 4592.81409893204, 20674.648365336463, 0.016, 0.976, -0.018000000000000002, 192.0, 0.0, 0.0, 0.0, 0.0, 0.0, 0.0, 0.0, 0.0, 0.0, 1.694076923647366E9, 0.0, 2023-09-07 16:55:23.647
244.0, 7257.745535104935, -31348.14278461251, -3687.3449310475507, -3624.8494535505124, 9786.979530689661, 10375.612720920173, 4601.084244380503, 20730.706540430372, 0.016, 0.976, -0.018000000000000002, 192.0, 0.0, 0.0, 0.0, 0.0, 0.0, 0.0, 0.0, 0.0, 0.0, 1.694076923647373E9, 0.0, 2023-09-07 16:55:23.647
245.0, 7022.538128201739, -31655.07693947279, -3889.9634945349094, -3951.0508121312637, 9559.237606434537, 10104.53076416621, 4377.745613783075, 21033.68443652206, 0.028, 0.984, -0.018000000000000002, 192.0, 0.0, 224.0, 30.0, 192.0, 255.0, 112.0, 0.0, 0.0, 0.0, 1.69407692364738E9, 0.0, 2023-09-07 16:55:23.647
246.0, 6967.776354286237, -31775.128158942243, -3938.980870125398, -4316.2559647865255, 9501.391291784203, 10096.2829704622, 4330.739895193565, 21179.082534203833, 0.028, 0.984, -0.018000000000000002, 192.0, 0.0, 0.0, 0.0, 0.0, 0.0, 0.0, 0.0, 0.0, 0.0, 1.694076923647388E9, 0.0, 2023-09-07 16:55:23.647
247.0, 7240.400581407617, -31466.76349243683, -3787.7713188852454, -4425.511291684066, 9746.724038925653, 10279.209647084434, 4544.847255330951, 20797.091221462637, 0.028, 0.984, -0.018000000000000002, 192.0, 0.0, 0.0, 0.0, 0.0, 0.0, 0.0, 0.0, 0.0, 0.0, 1.694076923647395E9, 0.0, 2023-09-07 16:55:23.647
248.0, 7275.090488802253, -31335.223476317344, -3707.081521401587, -4058.0486128388184, 9794.869696482385, 10382.362947745676, 4570.976444599205, 20636.449234062344, 0.028, 0.984, -0.018000000000000002, 192.0, 0.0, 0.0, 0.0, 0.0, 0.0, 0.0, 0.0, 0.0, 0.0, 1.694076923647402E9, 0.0, 2023-09-07 16:55:23.647
249.0, 7028.796616649225, -31630.02063393839, -3892.8692213140994, -4243.188112162127, 9571.240493207037, 10096.841764073582, 4359.685404263188, 20976.10634280519, 0.028, 0.984, -0.018000000000000002, 192.0, 0.0, 0.0, 0.0, 0.0, 0.0, 0.0, 0.0, 0.0, 0.0, 1.694076923647409E9, 0.0, 2023-09-07 16:55:23.647
250.0, 6988.407014418485, -31741.42172830364, -3923.424055984504, -4587.114404095937, 9526.849928718797, 10018.007161379715, 4372.716471280632, 21200.875485047756, 0.028, 0.984, -0.018000000000000002, 192.0, 0.0, 0.0, 0.0, 0.0, 0.0, 0.0, 0.0, 0.0, 0.0, 1.694076923647416E9, 0.0, 2023-09-07 16:55:23.647
251.0, 7179.290912066807, -31554.829365590736, -3839.1579793879964, -4791.252886206256, 9755.016536118572, 10203.101957214112, 4493.170022150281, 20857.50798672533, 0.028, 0.984, -0.018000000000000002, 192.0, 0.0, 0.0, 0.0, 0.0, 0.0, 0.0, 0.0, 0.0, 0.0, 1.694076923647423E9, 0.0, 2023-09-07 16:55:23.647
252.0, 7347.532492581903, -31279.2323564568, -3659.3828987339616, -4397.638666348299, 9892.233895329702, 10391.884790883636, 4670.464059169777, 20598.764192910694, 0.028, 0.984, -0.018000000000000002, 192.0, 0.0, 0.0, 0.0, 0.0, 0.0, 0.0, 0.0, 0.0, 0.0, 1.69407692364743E9, 0.0, 2023-09-07 16:55:23.647
253.0, 7082.351396364141, -31568.91096459758, -3849.8644649820885, -4437.73769590112, 9609.99841809254, 10157.3479363141, 4460.201199078703, 20984.979985353948, 0.028, 0.984, -0.018000000000000002, 192.0, 0.0, 0.0, 0.0, 0.0, 0.0, 0.0, 0.0, 0.0, 0.0, 1.694076923647496E9, 0.0, 2023-09-07 16:55:23.647
254.0, 6964.37888912903, -31777.29627815441, -3955.744678466878, -4873.39554707951, 9519.585611770823, 10071.338423650077, 4305.147147792238, 21126.51123124495, 0.028, 0.984, -0.018000000000000002, 192.0, 0.0, 0.0, 0.0, 0.0, 0.0, 0.0, 0.0, 0.0, 0.0, 1.694076923647503E9, 0.0, 2023-09-07 16:55:23.647
255.0, 7140.51063543685, -31630.042985682845, -3889.359997434616, -5075.075337299745, 9698.958361024663, 10093.734871594295, 4447.013669850072, 20976.1510462941, 0.03, 1.004, -0.024, 192.0, 0.0, 240.0, 31.0, 96.0, 255.0, 64.0, 0.0, 0.0, 0.0, 1.69407692364751E9, 0.0, 2023-09-07 16:55:23.647
0.0, 7362.843437533789, -31280.66286810194, -3685.556791491126, -4727.393952297443, 9891.04925287357, 10368.706031883483, 4668.675919613352, 20589.68938466184, 0.03, 1.004, -0.024, 192.0, 0.0, 0.0, 0.0, 0.0, 0.0, 0.0, 0.0, 0.0, 0.0, 1.694076923708138E9, 0.0, 2023-09-07 16:55:23.708
1.0, 7126.764312596836, -31506.549597567275, -3816.5380139992258, -4563.421554973311, 9675.310215390948, 10258.802504396737, 4463.308091557991, 20946.803205824282, 0.03, 1.004, -0.024, 192.0, 0.0, 0.0, 0.0, 0.0, 0.0, 0.0, 0.0, 0.0, 0.0, 1.694076923708174E9, 0.0, 2023-09-07 16:55:23.708
2.0, 6978.013453246767, -31735.47616427853, -3942.3783352826044, -4961.975510355891, 9573.050984507918, 10061.503656089742, 4333.891491161763, 21122.778489920915, 0.03, 1.004, -0.024, 192.0, 0.0, 0.0, 0.0, 0.0, 0.0, 0.0, 0.0, 0.0, 0.0, 1.694076923708184E9, 0.0, 2023-09-07 16:55:23.708
3.0, 7111.632181600593, -31658.608515096726, -3901.139366762563, -5172.8418675472585, 9681.524000349522, 10147.781389687229, 4428.953460330184, 21063.479311880983, 0.03, 1.004, -0.024, 192.0, 0.0, 0.0, 0.0, 0.0, 0.0, 0.0, 0.0, 0.0, 0.0, 1.694076923708194E9, 0.0, 2023-09-07 16:55:23.708
4.0, 7386.558638400869, -31286.943708293882, -3694.072806128598, -4932.717076863894, 9920.10652066547, 10336.743037312393, 4671.760460348184, 20600.239408044745, 0.03, 1.004, -0.024, 192.0, 0.0, 0.0, 0.0, 0.0, 0.0, 0.0, 0.0, 0.0, 0.0, 1.694076923708203E9, 0.0, 2023-09-07 16:55:23.708
5.0, 7170.640786962604, -31445.61874218211, -3791.1240805535417, -4665.2784544561455, 9719.29844847899, 10234.461454684908, 4492.1194901608815, 20895.37184183262, 0.03, 1.004, -0.024, 192.0, 0.0, 0.0, 0.0, 0.0, 0.0, 0.0, 0.0, 0.0, 0.0, 1.694076923708212E9, 0.0, 2023-09-07 16:55:23.708
6.0, 7038.899605143024, -31679.30623046234, -3917.0314570702863, -5036.317412414242, 9603.382301733769, 10110.431624702409, 4360.534770552489, 21104.40535597865, 0.03, 1.004, -0.024, 192.0, 0.0, 0.0, 0.0, 0.0, 0.0, 0.0, 0.0, 0.0, 0.0, 1.694076923708221E9, 0.0, 2023-09-07 16:55:23.708
7.0, 7062.614806010104, -31707.22355928702, -3930.5319107212918, -5287.551020091894, 9664.313157118935, 10102.09442402058, 4347.391944812768, 21120.90094338667, 0.03, 1.004, -0.024, 192.0, 0.0, 0.0, 0.0, 0.0, 0.0, 0.0, 0.0, 0.0, 0.0, 1.69407692370823E9, 0.0, 2023-09-07 16:55:23.708
8.0, 7359.043640976387, -31329.076746592134, -3733.814207770134, -5169.980844256979, 9918.564250298054, 10343.515615882352, 4606.113386882947, 20600.440573744843, 0.03, 1.004, -0.024, 192.0, 0.0, 0.0, 0.0, 0.0, 0.0, 0.0, 0.0, 0.0, 0.0, 1.694076923708239E9, 0.0, 2023-09-07 16:55:23.708
9.0, 7205.241287379419, -31424.138715760557, -3789.760624141768, -4835.397581505487, 9774.551960772511, 10284.439955286975, 4478.641388254331, 20803.729689565862, 0.038, 1.014, -0.03, 192.0, 1.0, 48.0, 31.0, 176.0, 255.0, 16.0, 0.0, 0.0, 0.0, 1.694076923708248E9, 0.0, 2023-09-07 16:55:23.708
10.0, 7032.43995099544, -31685.385904954186, -3945.395820784071, -5172.126611724689, 9604.119909300794, 10077.596912097564, 4326.76128468052, 21065.155692715132, 0.038, 1.014, -0.03, 192.0, 0.0, 0.0, 0.0, 0.0, 0.0, 0.0, 0.0, 0.0, 0.0, 1.694076923708258E9, 0.0, 2023-09-07 16:55:23.708
11.0, 7029.511872471795, -31753.223449376044, -3965.2218181159283, -5444.460266168149, 9616.815700151408, 10044.51633030371, 4321.754493922531, 21161.424656084142, 0.038, 1.014, -0.03, 192.0, 0.0, 0.0, 0.0, 0.0, 0.0, 0.0, 0.0, 0.0, 0.0, 1.694076923708268E9, 0.0, 2023-09-07 16:55:23.708
12.0, 7343.799751257868, -31371.41095059049, -3770.1134407655527, -5403.288352881474, 9906.807232714562, 10269.486638246375, 4621.737256257207, 20697.514199914243, 0.038, 1.014, -0.03, 192.0, 0.0, 0.0, 0.0, 0.0, 0.0, 0.0, 0.0, 0.0, 0.0, 1.694076923708277E9, 0.0, 2023-09-07 16:55:23.708
13.0, 7271.58126492277, -31354.468328293366, -3745.9735567538214, -4982.382653043586, 9834.812263824018, 10289.558504767241, 4580.520639481621, 20778.360459609088, 0.038, 1.014, -0.03, 192.0, 0.0, 0.0, 0.0, 0.0, 0.0, 0.0, 0.0, 0.0, 0.0, 1.694076923708344E9, 0.0, 2023-09-07 16:55:23.708
14.0, 7048.533207003261, -31667.9738960235, -3954.0906493771854, -5257.510275543961, 9620.839014153364, 10110.610438658052, 4325.643697457755, 21025.235477117956, 0.038, 1.014, -0.03, 192.0, 0.0, 0.0, 0.0, 0.0, 0.0, 0.0, 0.0, 0.0, 0.0, 1.694076923708354E9, 0.0, 2023-09-07 16:55:23.708
15.0, 7028.550747460216, -31755.369216843752, -3975.0118821873525, -5539.119903936375, 9625.91286014472, 10058.217949654812, 4322.514453234012, 21178.85901675928, 0.038, 1.014, -0.03, 192.0, 0.0, 0.0, 0.0, 0.0, 0.0, 0.0, 0.0, 0.0, 0.0, 1.694076923768081E9, 0.0, 2023-09-07 16:55:23.768
16.0, 7302.225506570996, -31436.052195555236, -3810.033656362731, -5590.037177805564, 9880.834505657496, 10277.89089416157, 4568.7189184092185, 20769.509168804787, 0.038, 1.014, -0.03, 192.0, 0.0, 0.0, 0.0, 0.0, 0.0, 0.0, 0.0, 0.0, 0.0, 1.694076923768121E9, 0.0, 2023-09-07 16:55:23.768
17.0, 7331.573347040814, -31305.875635847526, -3718.0562279291426, -5148.21024515751, 9886.869476660428, 10370.181247017534, 4605.778110716118, 20687.32180444262, 0.038, 1.014, -0.03, 192.0, 0.0, 0.0, 0.0, 0.0, 0.0, 0.0, 0.0, 0.0, 0.0, 1.694076923768137E9, 0.0, 2023-09-07 16:55:23.768
18.0, 7087.6487598000485, -31608.63001449466, -3911.242355256362, -5303.554869121894, 9686.374328896323, 10116.24307826079, 4371.621235802321, 21020.832183460258, 0.038, 1.014, -0.03, 192.0, 0.0, 0.0, 0.0, 0.0, 0.0, 0.0, 0.0, 0.0, 0.0, 1.694076923768151E9, 0.0, 2023-09-07 16:55:23.768
19.0, 7002.287447725231, -31761.359484357774, -3990.0546062057742, -5642.675535997812, 9603.158784289215, 10043.51050180322, 4301.123833790282, 21169.448932343596, 0.036000000000000004, 1.016, -0.03, 192.0, 1.0, 32.0, 31.0, 192.0, 255.0, 16.0, 0.0, 0.0, 0.0, 1.694076923768166E9, 0.0, 2023-09-07 16:55:23.768
20.0, 7248.938947789544, -31514.015080215348, -3868.014081479798, -5766.392441557938, 9835.32635394649, 10222.369160934588, 4477.680263242753, 20837.860803349115, 0.036000000000000004, 1.016, -0.03, 192.0, 0.0, 0.0, 0.0, 0.0, 0.0, 0.0, 0.0, 0.0, 0.0, 1.69407692376818E9, 0.0, 2023-09-07 16:55:23.768
21.0, 7365.927978268622, -31292.352830452066, -3720.78314075269, -5354.718012180092, 9943.799369788096, 10318.146385925578, 4594.021093132626, 20611.974073883783, 0.036000000000000004, 1.016, -0.03, 192.0, 0.0, 0.0, 0.0, 0.0, 0.0, 0.0, 0.0, 0.0, 0.0, 1.694076923768195E9, 0.0, 2023-09-07 16:55:23.768
22.0, 7100.143384950565, -31578.58926994673, -3905.67677088699, -5364.463372762606, 9685.033224229006, 10089.532743636697, 4391.871916278829, 21000.045061116823, 0.036000000000000004, 1.016, -0.03, 192.0, 0.0, 0.0, 0.0, 0.0, 0.0, 0.0, 0.0, 0.0, 0.0, 1.69407692376821E9, 0.0, 2023-09-07 16:55:23.768
23.0, 7007.048369294211, -31746.27205685044, -3986.4112718595593, -5709.12727226344, 9600.52127844349, 10053.613490297019, 4334.517340006511, 21159.927089205634, 0.036000000000000004, 1.016, -0.03, 192.0, 0.0, 0.0, 0.0, 0.0, 0.0, 0.0, 0.0, 0.0, 0.0, 1.694076923768222E9, 0.0, 2023-09-07 16:55:23.768
24.0, 7189.416252305062, -31573.850700122202, -3904.5591836642247, -5867.019995095729, 9781.212780620192, 10190.584980319141, 4486.576257535966, 20954.15692975008, 0.036000000000000004, 1.016, -0.03, 192.0, 0.0, 0.0, 0.0, 0.0, 0.0, 0.0, 0.0, 0.0, 0.0, 1.694076923768235E9, 0.0, 2023-09-07 16:55:23.768
25.0, 7387.586818645814, -31275.38785641049, -3715.619887783514, -5510.487319289126, 10083.654234844951, 10392.91297112858, 4632.689611040308, 20580.949852579815, 0.036000000000000004, 1.016, -0.03, 192.0, 0.0, 0.0, 0.0, 0.0, 0.0, 0.0, 0.0, 0.0, 0.0, 1.69407692376825E9, 0.0, 2023-09-07 16:55:23.768
26.0, 7127.837196330691, -31540.703063094985, -3886.7671950778004, -5389.989064930566, 9833.158234734325, 10137.09725583759, 4398.800957059974, 20930.441728882997, 0.036000000000000004, 1.016, -0.03, 192.0, 0.0, 0.0, 0.0, 0.0, 0.0, 0.0, 0.0, 0.0, 0.0, 1.694076923768263E9, 0.0, 2023-09-07 16:55:23.768
27.0, 6994.911372054979, -31761.560650057872, -4010.573507615746, -5767.174752613873, 9713.464643176156, 10007.010103107703, 4285.879944071763, 21102.41605072213, 0.036000000000000004, 1.016, -0.03, 192.0, 0.0, 0.0, 0.0, 0.0, 0.0, 0.0, 0.0, 0.0, 0.0, 1.694076923768276E9, 0.0, 2023-09-07 16:55:23.768
28.0, 7125.356152696151, -31659.50258487494, -3950.290852819783, -5953.677708348955, 9922.475805577733, 10103.681397876906, 4405.707646096665, 21035.182003400565, 0.032, 1.016, -0.04, 192.0, 1.0, 0.0, 31.0, 192.0, 254.0, 192.0, 0.0, 0.0, 0.0, 1.69407692376836E9, 0.0, 2023-09-07 16:55:23.768
29.0, 7405.781138632434, -31289.983545539802, -3739.916234006433, -5672.69392880129, 10162.533541027731, 10308.535135809796, 4653.096753728003, 20585.710774148796, 0.032, 1.016, -0.04, 192.0, 0.0, 0.0, 0.0, 0.0, 0.0, 0.0, 0.0, 0.0, 0.0, 1.694076923768375E9, 0.0, 2023-09-07 16:55:23.768
30.0, 7175.155839342576, -31479.146358865066, -3857.754630774812, -5410.776187274002, 9883.360252780945, 10155.91742466896, 4475.243923097125, 20897.875237211614, 0.032, 1.016, -0.04, 192.0, 0.0, 0.0, 0.0, 0.0, 0.0, 0.0, 0.0, 0.0, 0.0, 1.694076923828369E9, 0.0, 2023-09-07 16:55:23.828
31.0, 7044.44283776794, -31689.498625933964, -3955.319995322227, -5744.9794703697535, 9715.252782732581, 10109.917534579938, 4363.686366520687, 21093.587111662284, 0.032, 1.016, -0.04, 192.0, 0.0, 0.0, 0.0, 0.0, 0.0, 0.0, 0.0, 0.0, 0.0, 1.694076923828396E9, 0.0, 2023-09-07 16:55:23.828
32.0, 7088.341663878163, -31708.56466395434, -3955.0964778776743, -5990.245162277837, 9794.512068571099, 10118.321790495133, 4371.017738702028, 21093.140076773176, 0.032, 1.016, -0.04, 192.0, 0.0, 0.0, 0.0, 0.0, 0.0, 0.0, 0.0, 0.0, 0.0, 1.694076923828406E9, 0.0, 2023-09-07 16:55:23.828
33.0, 7389.821993091345, -31324.181714556424, -3757.954091781866, -5830.2737272112045, 10079.027423742704, 10354.915005554558, 4622.653677779875, 20589.197646283825, 0.032, 1.016, -0.04, 192.0, 0.0, 0.0, 0.0, 0.0, 0.0, 0.0, 0.0, 0.0, 0.0, 1.694076923828414E9, 0.0, 2023-09-07 16:55:23.828
34.0, 7196.635865764126, -31459.74504467786, -3844.455342823904, -5486.436842255216, 9932.623497560442, 10196.73171004435, 4444.554977959988, 20797.761773796294, 0.032, 1.016, -0.04, 192.0, 0.0, 0.0, 0.0, 0.0, 0.0, 0.0, 0.0, 0.0, 0.0, 1.694076923828423E9, 0.0, 2023-09-07 16:55:23.828
35.0, 7033.892814385035, -31719.718184437537, -3996.1566324420733, -5807.743168800255, 9752.31197503948, 10011.860431654506, 4290.886734829752, 21036.858384234714, 0.032, 1.016, -0.04, 192.0, 0.0, 0.0, 0.0, 0.0, 0.0, 0.0, 0.0, 0.0, 0.0, 1.694076923828431E9, 0.0, 2023-09-07 16:55:23.828
36.0, 7059.597320508638, -31759.504289567984, -3996.3354463977157, -6035.283927355281, 9784.520838799577, 10032.111112131013, 4334.584395239877, 21135.116652860244, 0.032, 1.016, -0.04, 192.0, 0.0, 0.0, 0.0, 0.0, 0.0, 0.0, 0.0, 0.0, 0.0, 1.69407692382844E9, 0.0, 2023-09-07 16:55:23.828
37.0, 7364.877446279222, -31387.124226942567, -3800.176537057941, -5973.973092314374, 10060.94486247836, 10295.437013558987, 4596.6585989783525, 20630.078986892582, 0.032, 1.016, -0.04, 192.0, 0.0, 0.0, 0.0, 0.0, 0.0, 0.0, 0.0, 0.0, 0.0, 1.694076923828448E9, 0.0, 2023-09-07 16:55:23.828
38.0, 7270.418974211094, -31391.326354900168, -3795.4379672334157, -5536.214177157185, 9932.377628371434, 10262.781114909783, 4513.3089439045125, 20727.510240973264, 0.022, 1.014, -0.036000000000000004, 192.0, 0.0, 176.0, 31.0, 176.0, 254.0, 224.0, 0.0, 0.0, 0.0, 1.694076923828457E9, 0.0, 2023-09-07 16:55:23.828
39.0, 7050.053125626222, -31686.190567754576, -3984.3325596252157, -5794.309770382616, 9711.20711698617, 10016.733111945763, 4307.09174955985, 20996.982872126446, 0.022, 1.014, -0.036000000000000004, 192.0, 0.0, 0.0, 0.0, 0.0, 0.0, 0.0, 0.0, 0.0, 0.0, 1.694076923828469E9, 0.0, 2023-09-07 16:55:23.828
40.0, 7034.786884163247, -31786.99693524801, -4014.4403594065143, -6067.515142859834, 9688.453041130668, 9971.940216057326, 4282.169554492182, 21129.528716746416, 0.022, 1.014, -0.036000000000000004, 192.0, 0.0, 0.0, 0.0, 0.0, 0.0, 0.0, 0.0, 0.0, 0.0, 1.694076923828487E9, 0.0, 2023-09-07 16:55:23.828
41.0, 7328.153530139152, -31431.693605386452, -3830.686668239435, -6072.276064428815, 9975.36003295899, 10251.404076982031, 4538.208787227725, 20702.72215637233, 0.022, 1.014, -0.036000000000000004, 192.0, 0.0, 0.0, 0.0, 0.0, 0.0, 0.0, 0.0, 0.0, 0.0, 1.694076923828496E9, 0.0, 2023-09-07 16:55:23.828
42.0, 7341.564576812337, -31324.271121534246, -3745.571225353626, -5597.301494753539, 9975.516495170175, 10321.052112704769, 4572.250494033157, 20666.378219888, 0.022, 1.014, -0.036000000000000004, 192.0, 0.0, 0.0, 0.0, 0.0, 0.0, 0.0, 0.0, 0.0, 0.0, 1.694076923828504E9, 0.0, 2023-09-07 16:55:23.828
43.0, 7108.949972265956, -31619.44825881103, -3931.15775956604, -5740.710287178789, 9742.588966201421, 10087.610493613542, 4364.938064210184, 20997.11698259318, 0.022, 1.014, -0.036000000000000004, 192.0, 0.0, 0.0, 0.0, 0.0, 0.0, 0.0, 0.0, 0.0, 0.0, 1.694076923828513E9, 0.0, 2023-09-07 16:55:23.828
44.0, 7050.6119192376045, -31755.637437777215, -3975.481268820914, -6039.016668679317, 9689.213000442149, 10031.619373752997, 4335.14318885126, 21165.738542764015, 0.022, 1.014, -0.036000000000000004, 192.0, 0.0, 0.0, 0.0, 0.0, 0.0, 0.0, 0.0, 0.0, 0.0, 1.694076923828599E9, 0.0, 2023-09-07 16:55:23.828
45.0, 7292.278980288384, -31491.79744622677, -3844.9247294574657, -6124.512091220867, 9944.693439566308, 10197.379910633554, 4540.935700051272, 20830.685893378963, 0.022, 1.014, -0.036000000000000004, 192.0, 0.0, 0.0, 0.0, 0.0, 0.0, 0.0, 0.0, 0.0, 0.0, 1.694076923887821E9, 0.0, 2023-09-07 16:55:23.887
46.0, 7394.515859426959, -31289.514158906244, -3717.184509895386, -5672.001024723176, 9994.694291912829, 10327.71293255245, 4626.207605148269, 20635.532812539677, 0.022, 1.014, -0.036000000000000004, 192.0, 0.0, 0.0, 0.0, 0.0, 0.0, 0.0, 0.0, 0.0, 0.0, 1.694076923887876E9, 0.0, 2023-09-07 16:55:23.887
47.0, 7131.368771954629, -31597.789418433837, -3911.711741889923, -5704.992199539209, 9726.942745082706, 10082.357833666543, 4400.7232070831315, 20993.652462202605, 0.022, 1.014, -0.036000000000000004, 192.0, 0.0, 0.0, 0.0, 0.0, 0.0, 0.0, 0.0, 0.0, 0.0, 1.694076923887885E9, 0.0, 2023-09-07 16:55:23.887
48.0, 7038.25140455382, -31765.60631580428, -3987.037120704308, -6033.875767454597, 9643.213110353126, 10005.668998440386, 4332.058648116427, 21162.028153184434, 0.014, 1.002, -0.036000000000000004, 192.0, 0.0, 112.0, 31.0, 80.0, 254.0, 224.0, 0.0, 0.0, 0.0, 1.694076923887893E9, 0.0, 2023-09-07 16:55:23.887
49.0, 7237.137226717142, -31574.67771466705, -3893.8750498145882, -6172.568341799777, 9817.13203395987, 10157.01266014727, 4492.4100628388005, 20932.38633065061, 0.014, 1.002, -0.036000000000000004, 192.0, 0.0, 0.0, 0.0, 0.0, 0.0, 0.0, 0.0, 0.0, 0.0, 1.694076923887901E9, 0.0, 2023-09-07 16:55:23.887
50.0, 7423.394313263216, -31270.135196463492, -3703.818166711112, -5777.56831378559, 9984.993634819226, 10343.292098437798, 4647.732335058729, 20591.36576549599, 0.014, 1.002, -0.036000000000000004, 192.0, 0.0, 0.0, 0.0, 0.0, 0.0, 0.0, 0.0, 0.0, 0.0, 1.69407692388791E9, 0.0, 2023-09-07 16:55:23.887
51.0, 7147.976118084922, -31556.215173746965, -3891.706930602423, -5688.2730946866395, 9734.20706203068, 10059.983737466782, 4398.286866937503, 20930.151156205076, 0.014, 1.002, -0.036000000000000004, 192.0, 0.0, 0.0, 0.0, 0.0, 0.0, 0.0, 0.0, 0.0, 0.0, 1.694076923887917E9, 0.0, 2023-09-07 16:55:23.887
52.0, 7040.330116788164, -31773.71999904156, -4000.4034638885814, -6055.042869453772, 9617.977990863084, 9976.812896348583, 4301.794386123942, 21101.14200128818, 0.014, 1.002, -0.036000000000000004, 192.0, 0.0, 0.0, 0.0, 0.0, 0.0, 0.0, 0.0, 0.0, 0.0, 1.694076923887925E9, 0.0, 2023-09-07 16:55:23.887
53.0, 7203.85547922319, -31641.93411373307, -3923.334649006683, -6215.75191208743, 9769.70163222571, 10137.29842153769, 4444.174998304248, 21016.20537235801, 0.014, 1.002, -0.036000000000000004, 192.0, 0.0, 0.0, 0.0, 0.0, 0.0, 0.0, 0.0, 0.0, 0.0, 1.694076923887932E9, 0.0, 2023-09-07 16:55:23.887
54.0, 7431.865624411777, -31287.815426327637, -3721.699562275358, -5902.603972268578, 9994.426070979365, 10367.074354538245, 4647.955852503283, 20563.35902969349, 0.014, 1.002, -0.036000000000000004, 192.0, 0.0, 0.0, 0.0, 0.0, 0.0, 0.0, 0.0, 0.0, 0.0, 1.69407692388794E9, 0.0, 2023-09-07 16:55:23.887
55.0, 7189.952694171989, -31518.552484339772, -3859.7662877757894, -5678.974768993231, 9757.341117541924, 10154.48691302382, 4425.265422495058, 20869.533225242285, 0.014, 1.002, -0.036000000000000004, 192.0, 0.0, 0.0, 0.0, 0.0, 0.0, 0.0, 0.0, 0.0, 0.0, 1.694076923887948E9, 0.0, 2023-09-07 16:55:23.887
56.0, 7048.488503514351, -31750.76475748596, -3986.746548026389, -6037.273232611804, 9630.986706136073, 9985.172448774869, 4303.604877424822, 21065.93800377107, 0.014, 1.002, -0.036000000000000004, 192.0, 0.0, 0.0, 0.0, 0.0, 0.0, 0.0, 0.0, 0.0, 0.0, 1.694076923887956E9, 0.0, 2023-09-07 16:55:23.887
57.0, 7102.669132074015, -31729.016510130947, -3977.35881535516, -6250.352412504246, 9701.417052914745, 10023.773911449183, 4352.711659993131, 21041.775768014882, 0.014, 1.002, -0.036000000000000004, 192.0, 0.0, 0.0, 0.0, 0.0, 0.0, 0.0, 0.0, 0.0, 0.0, 1.694076923887964E9, 0.0, 2023-09-07 16:55:23.887
58.0, 7425.204804564096, -31312.80467662867, -3742.3749258965167, -6018.877746925086, 9981.21619000628, 10325.678923807016, 4623.056009180071, 20554.865366800474, 0.018000000000000002, 1.006, -0.038, 192.0, 0.0, 144.0, 31.0, 112.0, 254.0, 208.0, 0.0, 0.0, 0.0, 1.694076923887973E9, 0.0, 2023-09-07 16:55:23.887
59.0, 7259.9136543171, -31435.0687187992, -3809.430159262438, -5649.984556434698, 9801.061129696505, 10220.245745211334, 4476.070937641971, 20816.492535649842, 0.018000000000000002, 1.006, -0.038, 192.0, 0.0, 0.0, 0.0, 0.0, 0.0, 0.0, 0.0, 0.0, 0.0, 1.694076923887981E9, 0.0, 2023-09-07 16:55:23.887
60.0, 7085.368881865607, -31693.32077423582, -3959.6338820021015, -5974.3754237145695, 9651.639718012777, 10042.638783769464, 4352.488142548578, 21064.149864214643, 0.018000000000000002, 1.006, -0.038, 192.0, 0.0, 0.0, 0.0, 0.0, 0.0, 0.0, 0.0, 0.0, 0.0, 1.694076923947622E9, 0.0, 2023-09-07 16:55:23.947
61.0, 7094.421338370006, -31748.507231295975, -3969.6698152625345, -6221.742179601452, 9679.95937823765, 10027.12667311748, 4350.9458721811625, 21142.828004697323, 0.018000000000000002, 1.006, -0.038, 192.0, 0.0, 0.0, 0.0, 0.0, 0.0, 0.0, 0.0, 0.0, 0.0, 1.694076923947697E9, 0.0, 2023-09-07 16:55:23.947
62.0, 7387.787984345911, -31391.661631066996, -3781.8257548601337, -6142.348783296202, 9972.990748046726, 10212.221468951879, 4578.486630736188, 20615.706815207817, 0.018000000000000002, 1.006, -0.038, 192.0, 0.0, 0.0, 0.0, 0.0, 0.0, 0.0, 0.0, 0.0, 0.0, 1.694076923947706E9, 0.0, 2023-09-07 16:55:23.947
63.0, 7288.099204075242, -31414.259244711313, -3784.3515019835836, -5700.678312859334, 9848.80445585304, 10206.342960160133, 4501.551926321021, 20746.419816782454, 0.018000000000000002, 1.006, -0.038, 192.0, 0.0, 0.0, 0.0, 0.0, 0.0, 0.0, 0.0, 0.0, 0.0, 1.694076923947715E9, 0.0, 2023-09-07 16:55:23.947
64.0, 7080.4291463409845, -31701.09918130627, -3969.6698152625345, -5973.794278358731, 9614.066435583405, 10050.439542584365, 4314.80310139693, 21009.25397983241, 0.018000000000000002, 1.006, -0.038, 192.0, 0.0, 0.0, 0.0, 0.0, 0.0, 0.0, 0.0, 0.0, 0.0, 1.694076923947723E9, 0.0, 2023-09-07 16:55:23.947
65.0, 7062.726564732381, -31794.082438240344, -3990.9933794728972, -6236.784903619874, 9624.5717554774, 10014.632047966963, 4312.94790660714, 21136.681274972114, 0.018000000000000002, 1.006, -0.038, 192.0, 0.0, 0.0, 0.0, 0.0, 0.0, 0.0, 0.0, 0.0, 0.0, 1.694076923947732E9, 0.0, 2023-09-07 16:55:23.947
66.0, 7370.2865684374065, -31454.47003298641, -3823.2882408247283, -6230.749932616942, 9928.957811469772, 10227.286544714754, 4538.56641513901, 20673.910757769438, 0.018000000000000002, 1.006, -0.038, 192.0, 0.0, 0.0, 0.0, 0.0, 0.0, 0.0, 0.0, 0.0, 0.0, 1.69407692394774E9, 0.0, 2023-09-07 16:55:23.947
67.0, 7332.065085418831, -31371.500357568308, -3762.98323428431, -5752.355546040005, 9892.01037788515, 10257.55080670724, 4532.598499369443, 20671.69793506836, 0.018000000000000002, 1.006, -0.038, 192.0, 0.0, 0.0, 0.0, 0.0, 0.0, 0.0, 0.0, 0.0, 0.0, 1.694076923947748E9, 0.0, 2023-09-07 16:55:23.947
68.0, 7081.010291696822, -31683.106027019745, -3965.3782803271156, -5937.1597691964835, 9645.917671432218, 10010.474623498276, 4323.699095690143, 20976.39691548311, 0.01, 1.008, -0.038, 192.0, 0.0, 80.0, 31.0, 128.0, 254.0, 208.0, 0.0, 0.0, 0.0, 1.694076923947757E9, 0.0, 2023-09-07 16:55:23.947
69.0, 7039.413695265495, -31811.06976402638, -4010.5064523823803, -6237.589566420265, 9604.85751686782, 9949.990803002216, 4287.176345250171, 21140.302257573876, 0.01, 1.008, -0.038, 192.0, 0.0, 0.0, 0.0, 0.0, 0.0, 0.0, 0.0, 0.0, 0.0, 1.694076923947766E9, 0.0, 2023-09-07 16:55:23.947
70.0, 7316.865899189223, -31509.790600513294, -3854.71479352889, -6293.088947902793, 9863.266034515624, 10163.695831739406, 4525.580051610476, 20789.78220102575, 0.01, 1.008, -0.038, 192.0, 0.0, 0.0, 0.0, 0.0, 0.0, 0.0, 0.0, 0.0, 0.0, 1.694076923947775E9, 0.0, 2023-09-07 16:55:23.947
71.0, 7411.413778235171, -31301.42763870092, -3709.026123169199, -5800.612962319013, 9935.506872595177, 10305.85292647516, 4637.24936690919, 20653.593022059566, 0.01, 1.008, -0.038, 192.0, 0.0, 0.0, 0.0, 0.0, 0.0, 0.0, 0.0, 0.0, 0.0, 1.694076923947783E9, 0.0, 2023-09-07 16:55:23.947
72.0, 7144.019859316333, -31624.008014679912, -3921.658268172535, -5869.322224774626, 9648.19754936666, 10049.634879783975, 4374.415203859235, 20983.97415685346, 0.01, 1.008, -0.038, 192.0, 0.0, 0.0, 0.0, 0.0, 0.0, 0.0, 0.0, 0.0, 0.0, 1.694076923947792E9, 0.0, 2023-09-07 16:55:23.947
73.0, 7042.520587744783, -31803.49252265603, -3992.3121323957603, -6213.494385897445, 9620.034351352973, 9925.649753290387, 4288.830374339864, 21138.75998720646, 0.01, 1.008, -0.038, 192.0, 0.0, 0.0, 0.0, 0.0, 0.0, 0.0, 0.0, 0.0, 0.0, 1.6940769239478E9, 0.0, 2023-09-07 16:55:23.947
74.0, 7246.234386710452, -31607.3112615718, -3904.0227417972974, -6351.248186975502, 9825.670400341798, 10070.600816083052, 4449.852341395896, 20872.37189678811, 0.01, 1.008, -0.038, 192.0, 0.0, 0.0, 0.0, 0.0, 0.0, 0.0, 0.0, 0.0, 0.0, 1.694076923947808E9, 0.0, 2023-09-07 16:55:23.947
75.0, 7451.9374909326425, -31309.51897019374, -3720.716085519324, -5911.231745628327, 9946.816855289562, 10302.120185151123, 4642.166750689358, 20584.034393314647, 0.01, 1.008, -0.038, 192.0, 0.0, 0.0, 0.0, 0.0, 0.0, 0.0, 0.0, 0.0, 0.0, 1.694076924009136E9, 0.0, 2023-09-07 16:55:24.009
76.0, 7196.322941341751, -31591.888557897637, -3902.681637129979, -5836.286346469682, 9683.826230028419, 10111.750377625272, 4397.39279715929, 20924.496164857886, 0.01, 1.008, -0.038, 192.0, 0.0, 0.0, 0.0, 0.0, 0.0, 0.0, 0.0, 0.0, 0.0, 1.69407692400918E9, 0.0, 2023-09-07 16:55:24.009
77.0, 7065.744050233848, -31788.29333642642, -3996.894240009098, -6185.5100018394, 9604.052854067428, 9980.813858606083, 4306.242383270548, 21100.627911165706, 0.01, 1.008, -0.038, 192.0, 0.0, 0.0, 0.0, 0.0, 0.0, 0.0, 0.0, 0.0, 0.0, 1.694076924009189E9, 0.0, 2023-09-07 16:55:24.009
78.0, 7204.57073504576, -31663.905878532634, -3936.231605557395, -6350.287061963923, 9757.519931497567, 10052.831179241084, 4423.365524216357, 20981.940148108024, 0.012, 1.014, -0.04, 192.0, 0.0, 96.0, 31.0, 176.0, 254.0, 192.0, 0.0, 0.0, 0.0, 1.694076924009196E9, 0.0, 2023-09-07 16:55:24.009
79.0, 7444.516711773481, -31328.115621580557, -3745.235949186796, -6014.541508500756, 9987.765251131685, 10279.008481384335, 4617.222203877235, 20551.780826065642, 0.012, 1.014, -0.04, 192.0, 0.0, 0.0, 0.0, 0.0, 0.0, 0.0, 0.0, 0.0, 0.0, 1.694076924009204E9, 0.0, 2023-09-07 16:55:24.009
80.0, 7207.074130424754, -31555.05288303529, -3887.236581711362, -5806.267953666205, 9750.903815138796, 10101.535630409197, 4420.0351142925165, 20888.643966751573, 0.012, 1.014, -0.04, 192.0, 0.0, 0.0, 0.0, 0.0, 0.0, 0.0, 0.0, 0.0, 0.0, 1.694076924009212E9, 0.0, 2023-09-07 16:55:24.009
81.0, 7100.344550650662, -31755.413920332663, -3984.198449158484, -6152.295309578813, 9644.688325487175, 9984.814820863583, 4331.432799271679, 21093.765925617925, 0.012, 1.014, -0.04, 192.0, 0.0, 0.0, 0.0, 0.0, 0.0, 0.0, 0.0, 0.0, 0.0, 1.694076924009219E9, 0.0, 2023-09-07 16:55:24.009
82.0, 7194.780670974335, -31701.07682956181, -3950.626128986613, -6339.558224625376, 9740.532605711533, 10037.252013355734, 4417.352904957879, 21095.531713429897, 0.012, 1.014, -0.04, 192.0, 0.0, 0.0, 0.0, 0.0, 0.0, 0.0, 0.0, 0.0, 0.0, 1.694076924009227E9, 0.0, 2023-09-07 16:55:24.009
83.0, 7476.05502319992, -31319.599606943088, -3738.1280944500086, -6099.29932347528, 10006.339550774044, 10276.974472638902, 4663.82559106655, 20599.188876055345, 0.012, 1.014, -0.04, 192.0, 0.0, 0.0, 0.0, 0.0, 0.0, 0.0, 0.0, 0.0, 0.0, 1.694076924009234E9, 0.0, 2023-09-07 16:55:24.009
84.0, 7259.24310198344, -31497.00540268486, -3846.131723658052, -5786.173735400884, 9796.70253952772, 10127.642467932996, 4466.45968752619, 20851.74123665586, 0.012, 1.014, -0.04, 192.0, 0.0, 0.0, 0.0, 0.0, 0.0, 0.0, 0.0, 0.0, 0.0, 1.694076924009242E9, 0.0, 2023-09-07 16:55:24.009
85.0, 7101.752710551347, -31760.800690746393, -3994.949638241487, -6144.7180682084645, 9656.53475004849, 9951.913053025371, 4322.782674167475, 21069.179006717088, 0.012, 1.014, -0.04, 192.0, 0.0, 0.0, 0.0, 0.0, 0.0, 0.0, 0.0, 0.0, 0.0, 1.694076924009249E9, 0.0, 2023-09-07 16:55:24.009
86.0, 7142.142312782087, -31770.881327495736, -3978.364643855649, -6355.696184122108, 9695.382081911812, 9997.3094460141, 4368.268474134025, 21138.51411801745, 0.012, 1.014, -0.04, 192.0, 0.0, 0.0, 0.0, 0.0, 0.0, 0.0, 0.0, 0.0, 0.0, 1.694076924009256E9, 0.0, 2023-09-07 16:55:24.009
87.0, 7441.588633249836, -31390.722857799872, -3783.8374118611114, -6223.642077880154, 9988.681672654351, 10245.883196101571, 4633.471922096243, 20630.883649692973, 0.012, 1.014, -0.04, 192.0, 0.0, 0.0, 0.0, 0.0, 0.0, 0.0, 0.0, 0.0, 0.0, 1.694076924009264E9, 0.0, 2023-09-07 16:55:24.009
88.0, 7351.824027517322, -31428.3184919737, -3791.772281142745, -5782.262180121205, 9854.839426855973, 10227.398303437032, 4539.818112828507, 20797.605311585106, 0.016, 1.014, -0.038, 192.0, 0.0, 128.0, 31.0, 176.0, 254.0, 208.0, 0.0, 0.0, 0.0, 1.694076924009271E9, 0.0, 2023-09-07 16:55:24.009
89.0, 7152.021783831333, -31707.558835453852, -3953.934187165998, -6067.537494604289, 9675.489029346589, 10023.2151178378, 4349.001270413551, 21048.101311695733, 0.016, 1.014, -0.038, 192.0, 0.0, 0.0, 0.0, 0.0, 0.0, 0.0, 0.0, 0.0, 0.0, 1.694076924009279E9, 0.0, 2023-09-07 16:55:24.009
90.0, 7122.025742772311, -31794.77534231846, -3988.3111701382604, -6326.840082030307, 9676.539561335989, 9984.747765630218, 4351.571721025911, 21177.13793243622, 0.016, 1.014, -0.038, 192.0, 0.0, 0.0, 0.0, 0.0, 0.0, 0.0, 0.0, 0.0, 0.0, 1.6940769240681E9, 0.0, 2023-09-07 16:55:24.068
91.0, 7414.051284080897, -31447.205716038436, -3818.5496710002035, -6306.947029465084, 9962.77600083065, 10211.30504742921, 4612.595392774987, 20696.2848539692, 0.016, 1.014, -0.038, 192.0, 0.0, 0.0, 0.0, 0.0, 0.0, 0.0, 0.0, 0.0, 0.0, 1.694076924068188E9, 0.0, 2023-09-07 16:55:24.068
92.0, 7374.466344650548, -31396.199035191425, -3780.663464148458, -5834.565262146623, 9908.058930404059, 10226.817158081194, 4581.884095893395, 20696.75424060276, 0.016, 1.014, -0.038, 192.0, 0.0, 0.0, 0.0, 0.0, 0.0, 0.0, 0.0, 0.0, 0.0, 1.694076924068197E9, 0.0, 2023-09-07 16:55:24.068
93.0, 7152.290004764796, -31681.74257060797, -3962.07022214773, -6024.845662694653, 9693.035148744006, 10004.640818195441, 4375.3092736374465, 21013.34434906773, 0.016, 1.014, -0.038, 192.0, 0.0, 0.0, 0.0, 0.0, 0.0, 0.0, 0.0, 0.0, 0.0, 1.694076924068206E9, 0.0, 2023-09-07 16:55:24.068
94.0, 7103.473794874406, -31798.463380153586, -4002.8845075231206, -6301.046168928882, 9634.205357337638, 9967.134590999436, 4343.569796510911, 21185.966871496068, 0.016, 1.014, -0.038, 192.0, 0.0, 0.0, 0.0, 0.0, 0.0, 0.0, 0.0, 0.0, 0.0, 1.694076924068214E9, 0.0, 2023-09-07 16:55:24.068
95.0, 7372.678205094124, -31502.99567019888, -3858.0452034527307, -6357.596082400809, 9894.312607564045, 10145.456808263876, 4566.28257826359, 20784.909520734494, 0.016, 1.014, -0.038, 192.0, 0.0, 0.0, 0.0, 0.0, 0.0, 0.0, 0.0, 0.0, 0.0, 1.694076924068222E9, 0.0, 2023-09-07 16:55:24.068
96.0, 7448.540025775436, -31323.06412733366, -3725.856986744045, -5864.069564827629, 9954.215282704268, 10276.505086005342, 4644.893663512906, 20664.299507653657, 0.016, 1.014, -0.038, 192.0, 0.0, 0.0, 0.0, 0.0, 0.0, 0.0, 0.0, 0.0, 0.0, 1.694076924068229E9, 0.0, 2023-09-07 16:55:24.068
97.0, 7192.836069206724, -31624.678567013572, -3916.6514774145458, -5942.457132632391, 9724.729922381632, 10039.08485640107, 4415.654172379276, 21011.48915427794, 0.016, 1.014, -0.038, 192.0, 0.0, 0.0, 0.0, 0.0, 0.0, 0.0, 0.0, 0.0, 0.0, 1.694076924068237E9, 0.0, 2023-09-07 16:55:24.068
98.0, 7091.046224957255, -31807.448781424617, -4007.5336703698244, -6274.782869193897, 9655.394811081269, 9928.264907391656, 4328.370610281302, 21152.41690306865, 0.02, 1.012, -0.036000000000000004, 192.0, 0.0, 160.0, 31.0, 160.0, 254.0, 224.0, 0.0, 0.0, 0.0, 1.694076924068245E9, 0.0, 2023-09-07 16:55:24.068
99.0, 7310.518003763915, -31599.845778923725, -3913.5669366797138, -6405.652332979719, 9852.492493688165, 10083.2295517003, 4481.815335966985, 20858.491463481365, 0.02, 1.012, -0.036000000000000004, 192.0, 0.0, 0.0, 0.0, 0.0, 0.0, 0.0, 0.0, 0.0, 0.0, 1.694076924068253E9, 0.0, 2023-09-07 16:55:24.068
100.0, 7456.340784590338, -31322.147705810992, -3726.1699111664193, -5948.55915886869, 10013.112129344003, 10327.824691274725, 4668.899437057905, 20616.98086464177, 0.02, 1.012, -0.036000000000000004, 192.0, 0.0, 0.0, 0.0, 0.0, 0.0, 0.0, 0.0, 0.0, 0.0, 1.694076924068261E9, 0.0, 2023-09-07 16:55:24.068
101.0, 7199.832165221234, -31603.44440978103, -3906.7943581097556, -5901.911068190464, 9783.783231232552, 10081.933150521892, 4431.412152220268, 20979.324994006754, 0.02, 1.012, -0.036000000000000004, 192.0, 0.0, 0.0, 0.0, 0.0, 0.0, 0.0, 0.0, 0.0, 0.0, 1.694076924068269E9, 0.0, 2023-09-07 16:55:24.068
102.0, 7097.081195960188, -31805.124200001264, -4003.398597645593, -6255.247444539958, 9694.15273596677, 9939.3960761304, 4338.3841917972795, 21136.65892322766, 0.02, 1.012, -0.036000000000000004, 192.0, 0.0, 0.0, 0.0, 0.0, 0.0, 0.0, 0.0, 0.0, 0.0, 1.694076924068277E9, 0.0, 2023-09-07 16:55:24.068
103.0, 7263.780506107868, -31651.008921981924, -3925.7709891523114, -6401.338446299845, 9871.893807875373, 10039.978926179281, 4484.989283679639, 20994.30066279181, 0.02, 1.012, -0.036000000000000004, 192.0, 0.0, 0.0, 0.0, 0.0, 0.0, 0.0, 0.0, 0.0, 0.0, 1.694076924068285E9, 0.0, 2023-09-07 16:55:24.068
104.0, 7497.62445659929, -31300.511217178253, -3715.865756972523, -6020.084741125673, 10115.594877671585, 10251.538187448763, 4706.360960765, 20629.855469448026, 0.02, 1.012, -0.036000000000000004, 192.0, 0.0, 0.0, 0.0, 0.0, 0.0, 0.0, 0.0, 0.0, 0.0, 1.694076924068293E9, 0.0, 2023-09-07 16:55:24.068
105.0, 7254.10220075872, -31542.82647881824, -3864.1472296890297, -5834.341744702071, 9915.144433396392, 10064.23056891329, 4494.824051239973, 20968.28323224583, 0.02, 1.012, -0.036000000000000004, 192.0, 0.0, 0.0, 0.0, 0.0, 0.0, 0.0, 0.0, 0.0, 0.0, 1.694076924128462E9, 0.0, 2023-09-07 16:55:24.128
106.0, 7116.191937469475, -31774.85993800878, -3978.4093473445596, -6194.137775199149, 9805.889106498851, 9990.40275697741, 4374.0128724590395, 21130.51219350245, 0.02, 1.012, -0.036000000000000004, 192.0, 0.0, 0.0, 0.0, 0.0, 0.0, 0.0, 0.0, 0.0, 0.0, 1.694076924128513E9, 0.0, 2023-09-07 16:55:24.128
107.0, 7200.368607088162, -31726.222542074032, -3948.703878963456, -6391.950713628616, 9914.92091595184, 10024.042132382649, 4437.804751134486, 21071.615346862716, 0.02, 1.012, -0.036000000000000004, 192.0, 0.0, 0.0, 0.0, 0.0, 0.0, 0.0, 0.0, 0.0, 0.0, 1.694076924128609E9, 0.0, 2023-09-07 16:55:24.128
108.0, 7486.001549482531, -31335.290531550712, -3723.2641843872293, -6118.0077335843725, 10190.719090785873, 10273.1746760815, 4689.060710556592, 20583.095620047527, 0.028, 1.006, -0.034, 192.0, 0.0, 224.0, 31.0, 112.0, 254.0, 240.0, 0.0, 0.0, 0.0, 1.69407692412862E9, 0.0, 2023-09-07 16:55:24.128
109.0, 7267.468543942994, -31523.134591953112, -3840.7449532443234, -5823.188224218872, 9937.764398785162, 10119.61819167354, 4488.74437674813, 20847.89673660955, 0.028, 1.006, -0.034, 192.0, 0.0, 0.0, 0.0, 0.0, 0.0, 0.0, 0.0, 0.0, 0.0, 1.694076924128632E9, 0.0, 2023-09-07 16:55:24.128
110.0, 7122.763350339335, -31775.06110370888, -3979.683396778512, -6167.4944958084225, 9786.13016440036, 9932.332924882523, 4355.975014683606, 21084.802876091348, 0.028, 1.006, -0.034, 192.0, 0.0, 0.0, 0.0, 0.0, 0.0, 0.0, 0.0, 0.0, 0.0, 1.694076924128641E9, 0.0, 2023-09-07 16:55:24.128
111.0, 7142.991679071389, -31803.894854056223, -3985.4724985924363, -6405.071187623881, 9830.18545272177, 9967.983957288738, 4377.097413193871, 21122.66673119864, 0.028, 1.006, -0.034, 192.0, 0.0, 0.0, 0.0, 0.0, 0.0, 0.0, 0.0, 0.0, 0.0, 1.694076924128651E9, 0.0, 2023-09-07 16:55:24.128
112.0, 7448.562377519892, -31403.731573072862, -3775.1872867569077, -6247.111409558226, 10136.38200001502, 10237.166015764, 4650.235730437724, 20607.324911037078, 0.028, 1.006, -0.034, 192.0, 0.0, 0.0, 0.0, 0.0, 0.0, 0.0, 0.0, 0.0, 0.0, 1.69407692412866E9, 0.0, 2023-09-07 16:55:24.128
113.0, 7325.650134760158, -31478.52051002032, -3809.1172348400637, -5830.027858022197, 10009.200574064324, 10174.312910355677, 4548.602348399442, 20808.043576245735, 0.028, 1.006, -0.034, 192.0, 0.0, 0.0, 0.0, 0.0, 0.0, 0.0, 0.0, 0.0, 0.0, 1.69407692412867E9, 0.0, 2023-09-07 16:55:24.128
114.0, 7143.014030815844, -31740.974693414533, -3963.4336785595037, -6121.740474908409, 9885.036633615093, 9974.39890794741, 4409.1721664872375, 21066.697963082548, 0.028, 1.006, -0.034, 192.0, 0.0, 0.0, 0.0, 0.0, 0.0, 0.0, 0.0, 0.0, 0.0, 1.694076924128679E9, 0.0, 2023-09-07 16:55:24.128
115.0, 7140.130655781109, -31787.175749203656, -3962.1819808700066, -6342.173378726648, 9931.103578937482, 9963.379497930944, 4417.464663680156, 21193.81233379988, 0.028, 1.006, -0.034, 192.0, 0.0, 0.0, 0.0, 0.0, 0.0, 0.0, 0.0, 0.0, 0.0, 1.694076924128688E9, 0.0, 2023-09-07 16:55:24.128
116.0, 7444.7178774735785, -31420.45067792543, -3775.1872867569077, -6282.024834397416, 10244.117408289601, 10211.30504742921, 4665.479620156243, 20709.695900642386, 0.028, 1.006, -0.034, 192.0, 0.0, 0.0, 0.0, 0.0, 0.0, 0.0, 0.0, 0.0, 0.0, 1.694076924128698E9, 0.0, 2023-09-07 16:55:24.128
117.0, 7380.3225016978395, -31408.291328941745, -3767.297120964184, -5828.82086382161, 10172.994157432813, 10206.78999504924, 4611.231936363213, 20743.648200469997, 0.024, 1.012, -0.034, 192.0, 0.0, 192.0, 31.0, 160.0, 254.0, 240.0, 0.0, 0.0, 0.0, 1.694076924128707E9, 0.0, 2023-09-07 16:55:24.128
118.0, 7151.351231497673, -31714.89020763519, -3962.9866436703974, -6062.687166057488, 9937.876157507439, 9976.388213203933, 4388.094471465883, 21033.30445686632, 0.024, 1.012, -0.034, 192.0, 0.0, 0.0, 0.0, 0.0, 0.0, 0.0, 0.0, 0.0, 0.0, 1.694076924128717E9, 0.0, 2023-09-07 16:55:24.128
119.0, 7100.903344262046, -31839.791755651448, -4009.388865159615, -6348.476570663044, 9870.329185763501, 9923.079302678027, 4331.5222062495, 21194.460534389083, 0.024, 1.012, -0.034, 192.0, 0.0, 0.0, 0.0, 0.0, 0.0, 0.0, 0.0, 0.0, 0.0, 1.694076924128726E9, 0.0, 2023-09-07 16:55:24.128
120.0, 7413.112510813775, -31489.159940381047, -3818.5943744891138, -6352.410477687178, 10129.497662722786, 10173.530599299742, 4594.7810524441065, 20792.285596404745, 0.024, 1.012, -0.034, 192.0, 0.0, 0.0, 0.0, 0.0, 0.0, 0.0, 0.0, 0.0, 0.0, 1.694076924188629E9, 0.0, 2023-09-07 16:55:24.188
121.0, 7437.855891925799, -31356.412930060975, -3728.0698094451204, -5873.524352732224, 10112.95737182586, 10242.463379199908, 4639.283375654623, 20686.494789897777, 0.024, 1.012, -0.034, 192.0, 0.0, 0.0, 0.0, 0.0, 0.0, 0.0, 0.0, 0.0, 0.0, 1.694076924188655E9, 0.0, 2023-09-07 16:55:24.188
122.0, 7190.578543016737, -31664.12939597719, -3920.6300879275905, -5993.642627435044, 9861.835522870484, 9973.035451535638, 4417.2187944911475, 20998.078107604757, 0.024, 1.012, -0.034, 192.0, 0.0, 0.0, 0.0, 0.0, 0.0, 0.0, 0.0, 0.0, 0.0, 1.694076924188664E9, 0.0, 2023-09-07 16:55:24.188
123.0, 7134.430960945006, -31793.94832777361, -3967.3675855836377, -6280.884895430195, 9779.424641063768, 9957.925672283849, 4387.848602276874, 21201.791906570426, 0.024, 1.012, -0.034, 192.0, 0.0, 0.0, 0.0, 0.0, 0.0, 0.0, 0.0, 0.0, 0.0, 1.694076924188694E9, 0.0, 2023-09-07 16:55:24.188
124.0, 7335.909585465144, -31572.64370592162, -3871.4786018703703, -6391.235457806046, 9969.325061956057, 10109.112871779547, 4540.153388995336, 20901.026833179814, 0.024, 1.012, -0.034, 192.0, 0.0, 0.0, 0.0, 0.0, 0.0, 0.0, 0.0, 0.0, 0.0, 1.694076924188702E9, 0.0, 2023-09-07 16:55:24.188
125.0, 7427.551737731903, -31364.39250283152, -3743.6713270749246, -5964.540656154234, 10068.410345126433, 10276.84036217217, 4609.622610762431, 20615.4162425299, 0.024, 1.012, -0.034, 192.0, 0.0, 0.0, 0.0, 0.0, 0.0, 0.0, 0.0, 0.0, 0.0, 1.69407692418871E9, 0.0, 2023-09-07 16:55:24.188
126.0, 7227.95065974601, -31607.53477901635, -3891.5728201356915, -5926.542690580212, 9813.667513569299, 10071.472534116809, 4434.049658065994, 20988.19863655551, 0.024, 1.012, -0.034, 192.0, 0.0, 0.0, 0.0, 0.0, 0.0, 0.0, 0.0, 0.0, 0.0, 1.694076924188718E9, 0.0, 2023-09-07 16:55:24.188
127.0, 7153.720516409936, -31778.503272354996, -3960.840876202688, -6244.42920022359, 9727.613297416365, 9982.378480717955, 4399.627971604821, 21179.57427258185, 0.02, 1.016, -0.034, 192.0, 0.0, 160.0, 31.0, 192.0, 254.0, 240.0, 0.0, 0.0, 0.0, 1.694076924188726E9, 0.0, 2023-09-07 16:55:24.188
128.0, 7276.789221380856, -31639.743642776448, -3902.189898751962, -6406.993437647037, 9883.315549292034, 10076.188752196878, 4526.6305835998755, 21005.49888676392, 0.02, 1.016, -0.034, 192.0, 0.0, 0.0, 0.0, 0.0, 0.0, 0.0, 0.0, 0.0, 0.0, 1.694076924188735E9, 0.0, 2023-09-07 16:55:24.188
129.0, 7465.7285172615675, -31340.051453119693, -3728.4050856119497, -6044.381087348591, 10075.294682418667, 10280.975434896402, 4685.2385622547345, 20600.21705630029, 0.02, 1.016, -0.034, 192.0, 0.0, 0.0, 0.0, 0.0, 0.0, 0.0, 0.0, 0.0, 0.0, 1.694076924188742E9, 0.0, 2023-09-07 16:55:24.188
130.0, 7220.351066631207, -31598.2588050674, -3894.4338434259707, -5899.675893744933, 9803.139841930848, 10051.534778062676, 4452.445143752711, 20930.687598072007, 0.02, 1.016, -0.034, 192.0, 0.0, 0.0, 0.0, 0.0, 0.0, 0.0, 0.0, 0.0, 0.0, 1.69407692418875E9, 0.0, 2023-09-07 16:55:24.188
131.0, 7126.473739918917, -31790.43910389413, -3982.7679375133444, -6239.914147843618, 9699.539506380499, 9921.693494521796, 4368.514343323033, 21129.84164116879, 0.02, 1.016, -0.034, 192.0, 0.0, 0.0, 0.0, 0.0, 0.0, 0.0, 0.0, 0.0, 0.0, 1.694076924188758E9, 0.0, 2023-09-07 16:55:24.188
132.0, 7234.678534827058, -31712.900902378668, -3943.0935911051743, -6428.27229836849, 9810.359455389913, 9985.552428430608, 4462.16815259077, 21055.432683877076, 0.02, 1.016, -0.034, 192.0, 0.0, 0.0, 0.0, 0.0, 0.0, 0.0, 0.0, 0.0, 0.0, 1.694076924188766E9, 0.0, 2023-09-07 16:55:24.188
133.0, 7505.335808436372, -31336.45282226239, -3728.7627135232347, -6130.949393623995, 10057.972080465805, 10272.615882470118, 4698.493146716732, 20602.47458249028, 0.02, 1.016, -0.034, 192.0, 0.0, 0.0, 0.0, 0.0, 0.0, 0.0, 0.0, 0.0, 0.0, 1.694076924188774E9, 0.0, 2023-09-07 16:55:24.188
134.0, 7288.6356459421695, -31524.1404204536, -3837.7945229762227, -5845.5846721630905, 9833.784083579074, 10129.184738300411, 4508.79389152454, 20909.006405950357, 0.02, 1.016, -0.034, 192.0, 0.0, 0.0, 0.0, 0.0, 0.0, 0.0, 0.0, 0.0, 0.0, 1.694076924188781E9, 0.0, 2023-09-07 16:55:24.188
135.0, 7127.725437608414, -31783.308897412888, -3986.679492793023, -6213.002647519427, 9689.995311498084, 9945.475750622243, 4353.493971049067, 21091.64250989467, 0.02, 1.016, -0.034, 192.0, 0.0, 0.0, 0.0, 0.0, 0.0, 0.0, 0.0, 0.0, 0.0, 1.694076924248175E9, 0.0, 2023-09-07 16:55:24.248
136.0, 7155.665118177548, -31798.977470276055, -3998.7047313099783, -6441.638641552764, 9734.11765505286, 9971.515532912676, 4366.726203766609, 21109.635664181194, 0.02, 1.016, -0.034, 192.0, 0.0, 0.0, 0.0, 0.0, 0.0, 0.0, 0.0, 0.0, 0.0, 1.694076924248205E9, 0.0, 2023-09-07 16:55:24.248
137.0, 7454.463238056092, -31414.460410411408, -3792.8004613876897, -6267.652662712653, 10003.053844339114, 10211.21564045139, 4627.34754411549, 20588.772963139174, 0.016, 1.014, -0.032, 192.0, 0.0, 128.0, 31.0, 176.0, 255.0, 0.0, 0.0, 0.0, 0.0, 1.694076924248214E9, 0.0, 2023-09-07 16:55:24.248
138.0, 7312.440253787072, -31503.040373687792, -3828.9879356608317, -5875.893637644486, 9861.969633337216, 10136.806683159672, 4525.602403354932, 20800.60044534212, 0.016, 1.014, -0.032, 192.0, 0.0, 0.0, 0.0, 0.0, 0.0, 0.0, 0.0, 0.0, 0.0, 1.694076924248222E9, 0.0, 2023-09-07 16:55:24.248
139.0, 7134.766237111836, -31755.1456993992, -3974.3189781092383, -6175.049385434317, 9695.180916211715, 9964.944120042815, 4388.072119721427, 21052.526957097885, 0.016, 1.014, -0.032, 192.0, 0.0, 0.0, 0.0, 0.0, 0.0, 0.0, 0.0, 0.0, 0.0, 1.694076924248257E9, 0.0, 2023-09-07 16:55:24.248
140.0, 7143.684583149503, -31802.330231944354, -3982.83499274671, -6397.8292224203615, 9699.383044169314, 9966.732259599241, 4393.816518046441, 21178.85901675928, 0.016, 1.014, -0.032, 192.0, 0.0, 0.0, 0.0, 0.0, 0.0, 0.0, 0.0, 0.0, 0.0, 1.694076924248265E9, 0.0, 2023-09-07 16:55:24.248
141.0, 7472.4787440870705, -31420.182456991966, -3782.1386792825083, -6308.042264943393, 9995.07427156857, 10190.92025648597, 4649.051087981593, 20696.95540630286, 0.016, 1.014, -0.032, 192.0, 0.0, 0.0, 0.0, 0.0, 0.0, 0.0, 0.0, 0.0, 0.0, 1.694076924248272E9, 0.0, 2023-09-07 16:55:24.248
142.0, 7365.637405590703, -31429.32432047419, -3777.981254813821, -5858.928663602908, 9895.474898275721, 10185.600541305606, 4583.649883705364, 20785.11068643459, 0.016, 1.014, -0.032, 192.0, 0.0, 0.0, 0.0, 0.0, 0.0, 0.0, 0.0, 0.0, 0.0, 1.69407692424828E9, 0.0, 2023-09-07 16:55:24.248
143.0, 7159.889597879601, -31701.300347006363, -3942.870073660621, -6089.732776848409, 9694.197439455682, 10006.74188217424, 4419.5657276589545, 21065.043933992856, 0.016, 1.014, -0.032, 192.0, 0.0, 0.0, 0.0, 0.0, 0.0, 0.0, 0.0, 0.0, 0.0, 1.694076924248288E9, 0.0, 2023-09-07 16:55:24.248
144.0, 7134.02862954481, -31804.833627323347, -3980.8233357457325, -6350.421172430655, 9668.939968221184, 9974.108335269491, 4381.701872551665, 21202.887142048734, 0.016, 1.014, -0.032, 192.0, 0.0, 0.0, 0.0, 0.0, 0.0, 0.0, 0.0, 0.0, 0.0, 1.694076924248295E9, 0.0, 2023-09-07 16:55:24.248
145.0, 7426.56826097587, -31483.057914144745, -3816.47095876586, -6368.839009861828, 9957.299823439102, 10197.983407733847, 4604.884040937905, 20786.697660290916, 0.016, 1.014, -0.032, 192.0, 0.0, 0.0, 0.0, 0.0, 0.0, 0.0, 0.0, 0.0, 0.0, 1.694076924248303E9, 0.0, 2023-09-07 16:55:24.248
146.0, 7424.534252230436, -31377.088293682136, -3739.3797921395058, -5885.9742743938305, 9939.01609647466, 10262.691707931961, 4616.238727121202, 20717.854287368573, 0.016, 1.014, -0.032, 192.0, 0.0, 0.0, 0.0, 0.0, 0.0, 0.0, 0.0, 0.0, 0.0, 1.69407692424831E9, 0.0, 2023-09-07 16:55:24.248
147.0, 7137.157873768553, -31721.305158293864, -3974.363681598149, -6059.557921833744, 9643.615441753322, 9974.220093991767, 4363.708718265142, 21008.315206565287, 0.014, 1.018, -0.032, 192.0, 0.0, 112.0, 31.0, 208.0, 255.0, 0.0, 0.0, 0.0, 0.0, 1.694076924248318E9, 0.0, 2023-09-07 16:55:24.248
148.0, 7086.374710366096, -31861.316485561907, -4022.8893188106204, -6369.64367266222, 9610.534859959467, 9911.456395561267, 4315.093674074849, 21171.61705155576, 0.014, 1.018, -0.032, 192.0, 0.0, 0.0, 0.0, 0.0, 0.0, 0.0, 0.0, 0.0, 0.0, 1.694076924248326E9, 0.0, 2023-09-07 16:55:24.248
149.0, 7373.616978361247, -31557.980961558937, -3854.33481387315, -6421.991458176549, 9881.080374846504, 10103.18965949889, 4579.380700514401, 20870.293184553764, 0.014, 1.018, -0.032, 192.0, 0.0, 0.0, 0.0, 0.0, 0.0, 0.0, 0.0, 0.0, 0.0, 1.694076924248333E9, 0.0, 2023-09-07 16:55:24.248
150.0, 7485.107479704318, -31339.49265950831, -3710.367227836517, -5950.280243191748, 9972.141381757425, 10225.341942947143, 4690.155946034903, 20692.19448473388, 0.014, 1.018, -0.032, 192.0, 0.0, 0.0, 0.0, 0.0, 0.0, 0.0, 0.0, 0.0, 0.0, 1.69407692430775E9, 0.0, 2023-09-07 16:55:24.307
151.0, 7177.1674963435535, -31680.08854151828, -3942.3336317936937, -6006.114900841106, 9703.763986082553, 9974.063631780582, 4389.860259277852, 21010.930360666556, 0.014, 1.018, -0.032, 192.0, 0.0, 0.0, 0.0, 0.0, 0.0, 0.0, 0.0, 0.0, 0.0, 1.694076924307771E9, 0.0, 2023-09-07 16:55:24.307
